timestamp_s,eeg_1,eeg_2,eeg_3,eeg_4
-0.937500,25.390625,30.761719,38.085938,19.042969
-0.933594,4.394531,31.250000,38.574219,10.253906
-0.929688,53.222656,26.367188,37.109375,22.460938
-0.925781,32.226562,30.273438,39.062500,31.738281
-0.921875,12.207031,35.156250,39.062500,22.460938
-0.917969,27.343750,36.132812,38.085938,15.136719
-0.914062,2.929688,36.132812,39.062500,7.324219
-0.910156,47.851562,29.296875,32.714844,17.089844
-0.906250,34.667969,33.691406,33.203125,26.855469
-0.902344,9.765625,31.738281,39.550781,18.554688
-0.898438,35.156250,20.019531,37.597656,13.671875
-0.894531,6.347656,20.019531,37.109375,5.371094
-0.890625,39.550781,23.437500,35.156250,14.160156
-0.886719,39.550781,32.226562,38.085938,28.320312
-0.882812,7.324219,39.550781,40.527344,20.507812
-0.878906,34.667969,35.644531,38.574219,10.742188
-0.875000,6.347656,34.667969,39.062500,2.929688
-0.871094,30.761719,29.785156,33.691406,8.300781
-0.867188,45.410156,29.785156,36.132812,24.414062
-0.863281,5.859375,35.644531,40.039062,19.531250
-0.859375,25.390625,34.179688,39.062500,9.765625
-0.855469,-2.441406,34.179688,40.039062,0.488281
-0.851562,20.996094,29.296875,35.156250,3.906250
-0.847656,47.363281,27.832031,35.156250,24.902344
-0.843750,3.417969,32.714844,41.503906,26.855469
-0.839844,29.785156,31.250000,40.039062,23.437500
-0.835938,15.625000,32.714844,42.968750,15.136719
-0.832031,17.089844,30.273438,41.503906,17.089844
-0.828125,47.851562,27.343750,40.039062,35.156250
-0.824219,4.394531,34.179688,44.921875,32.714844
-0.820312,22.460938,36.132812,42.480469,23.437500
-0.816406,13.183594,34.667969,41.992188,18.066406
-0.812500,8.300781,32.226562,41.015625,17.089844
-0.808594,57.128906,29.785156,38.574219,37.109375
-0.804688,20.996094,32.226562,40.527344,38.574219
-0.800781,25.390625,35.156250,40.039062,29.296875
-0.796875,28.320312,38.085938,41.503906,28.808594
-0.792969,26.855469,38.085938,42.968750,27.343750
-0.789062,64.453125,34.667969,40.527344,38.085938
-0.785156,19.531250,36.621094,43.457031,39.062500
-0.781250,14.648438,35.644531,45.410156,29.785156
-0.777344,20.996094,34.179688,45.410156,21.484375
-0.773438,6.347656,31.738281,43.457031,13.671875
-0.769531,53.710938,28.808594,42.480469,31.250000
-0.765625,25.390625,35.156250,47.851562,41.503906
-0.761719,20.019531,35.644531,45.410156,35.156250
-0.757812,37.597656,31.250000,43.457031,29.785156
-0.753906,9.765625,30.273438,45.410156,19.531250
-0.750000,55.175781,26.855469,43.457031,38.574219
-0.746094,42.968750,30.761719,44.921875,50.781250
-0.742188,24.414062,36.621094,46.875000,36.621094
-0.738281,36.132812,35.644531,47.363281,29.296875
-0.734375,5.371094,35.644531,46.875000,17.089844
-0.730469,48.339844,31.738281,41.992188,25.878906
-0.726562,38.085938,31.738281,43.457031,41.992188
-0.722656,7.324219,31.738281,48.828125,36.132812
-0.718750,41.015625,24.414062,49.316406,36.132812
-0.714844,14.648438,24.414062,47.851562,25.390625
-0.710938,38.085938,29.296875,45.410156,26.855469
-0.707031,46.386719,28.808594,45.898438,41.992188
-0.703125,12.695312,37.597656,45.410156,34.667969
-0.699219,40.527344,42.480469,41.992188,28.808594
-0.695312,12.207031,36.132812,45.410156,19.531250
-0.691406,34.179688,31.250000,43.945312,24.902344
-0.687500,61.035156,32.226562,42.968750,44.433594
-0.683594,19.531250,38.085938,47.363281,38.085938
-0.679688,40.527344,37.597656,46.875000,31.738281
-0.675781,16.601562,36.132812,44.433594,20.019531
-0.671875,26.367188,29.785156,37.597656,14.648438
-0.667969,56.640625,27.832031,36.621094,36.621094
-0.664062,16.113281,32.226562,41.015625,36.132812
-0.660156,33.691406,30.761719,41.015625,31.738281
-0.656250,20.019531,32.714844,41.992188,22.460938
-0.652344,23.437500,32.714844,41.015625,22.460938
-0.648438,66.894531,31.250000,41.503906,47.851562
-0.644531,23.925781,35.156250,44.921875,41.992188
-0.640625,35.156250,33.691406,42.480469,32.714844
-0.636719,28.808594,31.738281,42.480469,27.832031
-0.632812,13.183594,30.273438,41.015625,22.460938
-0.628906,58.105469,25.878906,36.621094,41.992188
-0.625000,21.972656,26.367188,40.039062,42.968750
-0.621094,21.972656,30.273438,40.527344,32.714844
-0.617188,26.367188,31.250000,40.039062,26.367188
-0.613281,11.718750,29.296875,39.550781,23.437500
-0.609375,59.082031,27.343750,36.621094,40.527344
-0.605469,29.296875,33.691406,40.039062,44.921875
-0.601562,20.019531,33.203125,39.550781,34.179688
-0.597656,34.179688,32.226562,39.550781,24.414062
-0.593750,14.648438,31.738281,39.062500,16.601562
-0.589844,54.199219,26.855469,34.667969,33.691406
-0.585938,30.761719,24.414062,39.062500,39.550781
-0.582031,18.066406,20.507812,40.039062,28.808594
-0.578125,39.550781,25.390625,39.062500,23.437500
-0.574219,11.230469,29.296875,42.968750,15.136719
-0.570312,55.664062,31.250000,39.062500,35.644531
-0.566406,45.898438,39.550781,41.015625,49.316406
-0.562500,15.136719,34.667969,47.851562,36.132812
-0.558594,53.222656,31.250000,50.292969,43.945312
-0.554688,35.644531,41.503906,46.875000,37.597656
-0.550781,50.781250,40.039062,31.738281,23.437500
-0.546875,27.832031,38.574219,29.785156,18.066406
-0.542969,-20.507812,41.503906,33.203125,2.929688
-0.539062,-0.488281,43.945312,27.343750,-11.230469
-0.535156,-34.179688,44.921875,21.972656,-40.039062
-0.531250,-26.855469,40.527344,12.207031,-50.292969
-0.527344,-28.320312,47.363281,5.859375,-52.246094
-0.523438,-76.660156,60.546875,1.953125,-79.101562
-0.519531,-62.011719,63.964844,-4.394531,-95.703125
-0.515625,-97.656250,65.917969,-4.882812,-113.769531
-0.511719,-90.820312,62.500000,-11.718750,-119.140625
-0.507812,-69.824219,62.500000,-16.113281,-110.351562
-0.503906,-114.746094,68.359375,-15.625000,-121.582031
-0.500000,-89.843750,65.917969,-15.136719,-121.582031
-0.496094,-104.492188,62.988281,-14.160156,-125.976562
-0.492188,-85.449219,55.664062,-18.554688,-122.558594
-0.488281,-43.457031,55.664062,-20.996094,-97.656250
-0.484375,-85.937500,63.476562,-12.695312,-95.214844
-0.480469,-59.082031,60.058594,-11.718750,-92.285156
-0.476562,-58.105469,55.175781,-12.695312,-88.378906
-0.472656,-50.292969,50.781250,-9.765625,-81.542969
-0.468750,-3.417969,46.875000,-8.789062,-55.664062
-0.464844,-41.992188,48.828125,-6.835938,-49.804688
-0.460938,-16.113281,52.246094,-5.859375,-43.945312
-0.457031,-11.230469,44.433594,2.929688,-32.714844
-0.453125,-20.019531,35.156250,8.789062,-29.785156
-0.449219,27.832031,34.667969,7.324219,-9.277344
-0.445312,-6.835938,42.968750,12.695312,-2.929688
-0.441406,-1.953125,42.968750,19.042969,-5.371094
-0.437500,11.230469,43.457031,19.531250,-3.417969
-0.433594,6.835938,48.339844,19.531250,-2.929688
-0.429688,62.988281,39.550781,16.601562,18.554688
-0.425781,36.132812,43.945312,20.507812,34.179688
-0.421875,25.390625,45.898438,21.972656,25.878906
-0.417969,44.921875,41.015625,20.507812,16.601562
-0.414062,23.437500,39.550781,24.414062,10.253906
-0.410156,69.824219,38.085938,22.949219,26.367188
-0.406250,50.292969,41.992188,26.855469,41.015625
-0.402344,29.785156,41.015625,32.714844,32.226562
-0.398438,46.386719,36.621094,31.250000,28.320312
-0.394531,15.136719,36.621094,29.785156,24.414062
-0.390625,60.058594,34.179688,25.878906,36.132812
-0.386719,59.570312,34.667969,25.390625,43.945312
-0.382812,28.320312,40.039062,28.320312,33.691406
-0.378906,51.269531,39.062500,27.343750,27.343750
-0.375000,25.878906,40.527344,27.343750,19.531250
-0.371094,57.617188,38.085938,22.949219,25.878906
-0.367188,66.406250,33.691406,26.367188,45.898438
-0.363281,36.132812,39.550781,34.179688,43.945312
-0.359375,59.082031,43.457031,36.621094,42.480469
-0.355469,30.761719,41.503906,39.062500,34.667969
-0.351562,53.222656,36.621094,33.203125,34.667969
-0.347656,78.125000,38.574219,31.738281,52.246094
-0.343750,34.667969,48.339844,34.179688,41.503906
-0.339844,52.246094,48.339844,30.273438,35.156250
-0.335938,31.738281,48.339844,32.714844,28.320312
-0.332031,43.945312,41.992188,30.761719,29.785156
-0.328125,80.078125,39.550781,31.738281,48.828125
-0.324219,36.132812,43.457031,36.132812,41.503906
-0.320312,45.410156,39.550781,32.714844,33.691406
-0.316406,25.878906,41.992188,31.250000,26.855469
-0.312500,30.273438,41.015625,26.855469,24.902344
-0.308594,69.335938,36.621094,24.414062,44.921875
-0.304688,20.019531,42.480469,27.832031,40.039062
-0.300781,30.761719,41.992188,26.855469,29.296875
-0.296875,25.878906,36.621094,25.390625,22.460938
-0.292969,10.742188,36.132812,23.925781,21.484375
-0.289062,61.035156,35.644531,22.460938,41.992188
-0.285156,28.808594,41.992188,24.902344,41.015625
-0.281250,28.320312,42.480469,21.972656,27.832031
-0.277344,30.273438,41.015625,20.996094,20.507812
-0.273438,10.742188,38.085938,20.996094,14.648438
-0.269531,61.523438,31.738281,18.554688,32.226562
-0.265625,34.667969,37.597656,23.925781,38.574219
-0.261719,24.902344,40.039062,27.343750,34.179688
-0.257812,31.738281,36.621094,29.785156,32.226562
-0.253906,12.207031,32.714844,25.878906,22.460938
-0.250000,62.988281,28.320312,20.996094,36.621094
-0.246094,36.132812,34.179688,28.808594,50.292969
-0.242188,21.972656,40.039062,31.738281,45.410156
-0.238281,45.898438,35.156250,31.250000,40.039062
-0.234375,15.625000,35.156250,31.738281,28.320312
-0.230469,61.035156,35.156250,25.390625,40.039062
-0.226562,52.734375,36.621094,26.855469,52.246094
-0.222656,21.484375,37.109375,31.250000,44.433594
-0.218750,49.316406,35.644531,30.273438,38.574219
-0.214844,23.437500,37.597656,32.714844,25.878906
-0.210938,50.292969,30.761719,32.714844,34.667969
-0.207031,52.734375,33.203125,31.250000,49.804688
-0.203125,22.949219,38.085938,32.226562,43.457031
-0.199219,49.316406,35.156250,31.250000,40.039062
-0.195312,21.972656,28.808594,27.832031,25.878906
-0.191406,48.828125,22.460938,23.925781,31.738281
-0.187500,53.710938,22.949219,24.902344,44.433594
-0.183594,11.718750,32.226562,29.296875,35.156250
-0.179688,38.085938,36.621094,28.808594,31.738281
-0.175781,13.183594,31.250000,30.273438,21.484375
-0.171875,29.785156,20.507812,30.273438,29.785156
-0.167969,55.175781,17.089844,31.250000,51.757812
-0.164062,16.113281,25.390625,35.156250,42.480469
-0.160156,37.109375,27.343750,34.179688,32.714844
-0.156250,11.230469,28.320312,33.691406,22.949219
-0.152344,14.160156,27.343750,34.667969,22.460938
-0.148438,53.222656,20.507812,31.250000,38.085938
-0.144531,11.718750,19.042969,32.226562,36.132812
-0.140625,27.832031,24.902344,34.179688,29.785156
-0.136719,12.695312,25.878906,33.691406,21.484375
-0.132812,6.835938,26.367188,27.832031,18.554688
-0.128906,56.152344,30.273438,25.390625,36.621094
-0.125000,16.601562,34.179688,30.761719,33.691406
-0.121094,21.972656,32.714844,30.761719,24.902344
-0.117188,25.390625,31.738281,31.738281,18.554688
-0.113281,13.183594,29.296875,31.250000,14.648438
-0.109375,57.128906,25.390625,27.832031,35.156250
-0.105469,22.460938,29.296875,32.714844,40.527344
-0.101562,20.019531,28.320312,33.203125,30.761719
-0.097656,32.226562,31.738281,32.714844,26.855469
-0.093750,15.625000,32.714844,34.179688,20.507812
-0.089844,65.429688,26.855469,30.761719,34.667969
-0.085938,33.203125,30.273438,33.203125,42.480469
-0.082031,16.113281,32.226562,35.156250,32.226562
-0.078125,34.179688,29.296875,31.738281,25.878906
-0.074219,5.859375,26.367188,30.273438,16.601562
-0.070312,52.734375,20.996094,27.832031,24.902344
-0.066406,33.691406,26.855469,31.250000,32.226562
-0.062500,2.929688,31.250000,32.714844,23.437500
-0.058594,29.785156,28.320312,31.250000,19.042969
-0.054688,8.300781,29.296875,31.250000,10.742188
-0.050781,42.480469,28.320312,28.808594,22.460938
-0.046875,37.597656,32.226562,31.250000,38.574219
-0.042969,11.230469,35.644531,31.738281,33.203125
-0.039062,31.738281,33.691406,31.738281,29.296875
-0.035156,0.488281,36.621094,33.691406,21.484375
-0.031250,35.644531,32.714844,26.855469,29.785156
-0.027344,46.386719,32.226562,27.343750,46.386719
-0.024208,31.738281,33.203125,32.714844,27.343750
-0.023438,13.671875,36.132812,33.691406,37.109375
-0.020301,14.160156,33.203125,34.667969,20.507812
-0.019531,45.410156,32.714844,30.273438,30.761719
-0.016395,22.949219,29.296875,33.691406,19.531250
-0.015625,8.789062,33.203125,30.761719,16.601562
-0.012489,56.152344,23.925781,34.667969,39.550781
-0.011719,26.855469,28.320312,28.320312,13.671875
-0.008583,14.160156,28.808594,39.550781,41.015625
-0.007812,51.757812,27.343750,30.761719,33.691406
-0.004676,35.156250,34.179688,38.085938,37.109375
-0.003906,7.812500,33.203125,35.156250,30.273438
-0.000770,30.761719,39.550781,36.132812,30.273438
0.003136,28.808594,39.550781,37.597656,35.156250
0.007042,62.988281,28.320312,43.945312,49.316406
0.010949,12.207031,28.320312,46.386719,39.062500
0.014855,30.273438,31.738281,44.921875,38.085938
0.018761,29.296875,25.390625,48.339844,39.062500
0.048115,15.625000,23.437500,47.363281,34.179688
0.052022,69.824219,25.878906,44.433594,48.828125
0.055928,33.691406,36.132812,46.386719,55.175781
0.059834,33.691406,31.250000,46.386719,51.757812
0.063740,46.386719,25.878906,46.386719,47.363281
0.067647,26.855469,30.761719,45.410156,38.085938
0.069103,55.175781,38.085938,46.386719,60.546875
0.071553,72.265625,29.785156,43.457031,52.246094
0.073009,38.574219,36.621094,46.875000,52.246094
0.075459,41.992188,29.296875,46.386719,57.617188
0.076916,57.617188,34.179688,41.992188,43.457031
0.079365,30.273438,27.832031,44.921875,49.316406
0.080822,30.273438,33.203125,40.527344,31.250000
0.083272,48.828125,38.085938,42.968750,44.921875
0.084728,69.335938,26.855469,35.156250,42.968750
0.087178,27.832031,39.550781,43.945312,31.250000
0.088634,54.199219,29.785156,36.621094,54.199219
0.091084,73.242188,35.644531,42.480469,45.898438
0.092541,21.484375,34.179688,41.503906,43.457031
0.096447,45.898438,31.250000,36.621094,33.691406
0.100353,19.042969,30.273438,31.738281,22.460938
0.104259,49.316406,27.832031,32.714844,31.738281
0.108166,52.734375,27.832031,36.621094,48.339844
0.112072,20.996094,27.343750,36.132812,38.574219
0.141282,46.875000,26.855469,34.179688,34.667969
0.145188,12.207031,29.296875,37.597656,25.390625
0.149095,34.179688,25.878906,36.132812,27.343750
0.153001,58.105469,24.902344,35.644531,44.433594
0.156907,18.066406,27.832031,41.992188,40.039062
0.160813,33.691406,27.343750,43.945312,35.644531
0.164720,10.742188,29.296875,42.480469,21.972656
0.166024,20.507812,29.296875,36.132812,23.925781
0.168626,29.785156,26.367188,38.085938,21.972656
0.169930,65.429688,23.925781,36.132812,42.480469
0.172532,63.476562,26.855469,37.597656,43.945312
0.173837,30.273438,23.925781,40.527344,37.597656
0.176438,21.972656,31.738281,39.062500,40.039062
0.177743,41.015625,22.949219,39.550781,31.738281
0.180345,38.085938,31.250000,38.085938,34.179688
0.181649,23.925781,31.738281,39.062500,25.878906
0.184251,19.042969,34.179688,38.574219,25.390625
0.185555,16.601562,35.644531,34.179688,21.972656
0.189462,69.335938,32.714844,31.250000,41.015625
0.193368,29.785156,34.667969,39.062500,42.968750
0.197274,32.226562,36.621094,41.503906,36.621094
0.201180,30.761719,31.738281,39.550781,26.855469
0.205087,16.113281,27.343750,37.597656,16.601562
0.208993,65.917969,26.367188,36.621094,34.667969
0.212899,34.667969,33.203125,41.992188,46.386719
0.216805,24.902344,36.621094,42.480469,39.550781
0.220712,32.714844,34.667969,42.480469,27.832031
0.224618,12.695312,33.691406,43.457031,18.554688
0.228524,56.640625,30.761719,39.062500,34.179688
0.232430,32.714844,34.667969,38.085938,40.039062
0.236337,16.601562,34.667969,38.085938,30.273438
0.240243,36.132812,32.226562,40.039062,25.390625
0.244149,9.765625,32.226562,41.503906,18.554688
0.248055,50.292969,29.296875,38.574219,34.667969
0.251962,40.527344,31.738281,41.015625,50.292969
0.255868,19.042969,35.644531,43.945312,40.527344
0.284944,45.410156,34.667969,40.039062,29.296875
0.288850,14.160156,33.203125,38.085938,16.601562
0.292756,46.875000,23.925781,35.644531,26.367188
0.296663,45.410156,26.367188,37.597656,41.503906
0.300569,15.625000,36.132812,43.945312,35.644531
0.304475,43.457031,35.644531,43.457031,29.785156
0.307020,44.433594,28.320312,41.503906,35.156250
0.308381,20.996094,37.109375,42.968750,20.507812
0.310926,68.359375,31.738281,39.062500,54.199219
0.312288,55.175781,33.691406,41.015625,35.156250
0.314833,28.808594,40.527344,41.503906,44.921875
0.316194,63.964844,36.621094,45.410156,50.781250
0.318739,55.664062,47.851562,41.015625,42.480469
0.320100,24.414062,38.085938,47.851562,37.597656
0.322645,29.785156,36.621094,39.062500,31.250000
0.324006,50.292969,32.226562,42.968750,34.179688
0.326551,36.132812,29.785156,33.691406,32.714844
0.327913,20.996094,31.250000,44.921875,24.902344
0.330458,70.312500,38.085938,32.714844,52.734375
0.334364,26.367188,37.109375,38.085938,49.316406
0.338270,40.039062,32.714844,39.062500,39.550781
0.342176,23.925781,31.250000,35.644531,24.414062
0.346083,28.808594,28.808594,34.667969,23.437500
0.349989,75.683594,24.414062,35.644531,43.945312
0.379382,28.808594,22.460938,37.597656,42.968750
0.383289,36.621094,25.390625,37.109375,35.644531
0.387195,31.738281,33.203125,37.597656,26.367188
0.391101,16.113281,31.250000,36.621094,20.507812
0.395007,65.917969,30.273438,35.156250,39.550781
0.398914,31.250000,38.085938,39.550781,43.457031
0.400499,30.273438,34.667969,37.597656,27.343750
0.402820,26.855469,37.109375,36.621094,28.320312
0.404406,17.089844,33.691406,37.597656,20.996094
0.406726,34.179688,38.085938,36.621094,17.089844
0.408312,63.964844,25.390625,35.644531,38.085938
0.410632,19.531250,37.109375,38.085938,18.554688
0.412218,40.527344,30.273438,38.085938,45.898438
0.414539,64.941406,30.273438,30.273438,35.644531
0.416124,19.042969,34.179688,41.992188,32.226562
0.418445,30.761719,32.714844,32.714844,37.109375
0.420031,42.968750,34.179688,42.480469,31.738281
0.422351,15.625000,32.714844,37.597656,31.250000
0.423937,16.113281,32.714844,43.457031,24.902344
0.427843,55.175781,23.437500,37.597656,32.226562
0.431749,49.316406,28.320312,38.085938,43.945312
0.435656,20.996094,35.644531,42.480469,35.156250
0.439562,56.152344,35.644531,41.503906,33.203125
0.443468,29.785156,37.109375,41.992188,23.437500
0.472841,56.152344,30.273438,40.039062,34.179688
0.476747,60.546875,31.250000,42.480469,51.757812
0.480653,17.089844,36.621094,45.410156,41.015625
0.484559,32.714844,33.203125,42.480469,34.179688
0.488466,4.882812,31.250000,41.015625,20.019531
0.492372,25.878906,26.367188,38.085938,25.390625
0.496278,45.410156,26.855469,39.550781,45.898438
0.498832,10.253906,32.714844,41.503906,34.179688
0.500184,7.324219,32.714844,40.527344,35.644531
0.502738,27.832031,34.179688,38.085938,23.925781
0.504091,32.226562,28.808594,36.621094,25.878906
0.506645,12.695312,36.621094,38.574219,16.113281
0.507997,8.300781,28.320312,39.550781,16.601562
0.510551,16.601562,33.691406,36.132812,18.066406
0.511903,24.902344,24.902344,38.085938,21.972656
0.514457,57.617188,27.832031,34.179688,37.109375
0.515809,57.617188,22.460938,38.574219,41.503906
0.518363,15.136719,37.597656,39.062500,32.226562
0.522270,26.367188,35.156250,40.527344,26.855469
0.526176,26.367188,30.273438,39.550781,20.996094
0.530082,19.531250,27.343750,35.644531,16.113281
0.533988,64.453125,24.902344,34.179688,37.109375
0.537895,26.367188,27.832031,37.109375,37.109375
0.541801,30.761719,29.785156,36.621094,30.761719
0.545707,35.644531,36.621094,37.109375,28.320312
0.549613,20.019531,39.062500,34.179688,22.949219
0.553520,71.289062,40.527344,32.226562,41.503906
0.557426,38.085938,42.480469,40.039062,46.875000
0.561332,29.296875,38.574219,43.457031,38.574219
0.565238,40.527344,36.132812,42.968750,31.738281
0.569145,12.695312,28.808594,42.480469,22.460938
0.573051,60.058594,20.996094,38.574219,34.667969
0.576957,42.480469,35.156250,38.574219,41.015625
0.580863,18.554688,41.503906,40.039062,30.761719
0.584770,42.968750,30.761719,40.039062,24.902344
0.588676,21.484375,35.644531,36.621094,14.160156
0.618205,59.082031,32.714844,33.203125,27.343750
0.622111,49.804688,30.273438,38.085938,41.503906
0.626017,26.367188,36.132812,40.039062,35.156250
0.629924,47.363281,31.738281,40.039062,28.808594
0.633830,13.183594,28.808594,40.039062,17.578125
0.637736,45.898438,27.832031,37.109375,25.390625
0.640060,10.742188,36.132812,40.527344,31.250000
0.641642,47.363281,28.808594,39.062500,36.621094
0.643966,40.527344,30.273438,40.039062,21.484375
0.645549,10.742188,33.203125,41.015625,28.808594
0.647872,7.324219,30.761719,40.527344,15.625000
0.649455,34.179688,32.226562,40.527344,25.390625
0.651779,22.949219,26.367188,36.132812,20.019531
0.653361,7.812500,32.226562,40.527344,14.648438
0.655685,52.734375,24.902344,36.132812,36.132812
0.657267,27.343750,28.320312,34.179688,16.601562
0.659591,11.718750,30.761719,42.968750,30.761719
0.661174,38.574219,32.226562,35.156250,39.062500
0.663497,38.085938,31.250000,41.503906,26.367188
0.667404,20.507812,32.714844,38.574219,20.507812
0.671310,30.273438,33.691406,36.621094,21.972656
0.675216,73.730469,32.714844,34.667969,40.527344
0.679122,32.714844,36.621094,39.062500,39.550781
0.683029,43.945312,37.109375,39.550781,32.714844
0.712309,26.855469,36.132812,37.109375,19.531250
0.716216,20.996094,29.785156,34.179688,15.136719
0.720122,68.359375,25.878906,33.203125,38.574219
0.724028,25.878906,34.179688,37.109375,41.992188
0.727934,32.226562,35.156250,37.109375,33.691406
0.731841,31.250000,32.714844,36.132812,24.414062
0.735747,17.578125,23.925781,36.132812,19.042969
0.737571,62.011719,40.039062,35.156250,30.273438
0.739653,69.824219,20.019531,33.691406,40.039062
0.741477,35.156250,41.015625,41.015625,38.574219
0.743559,34.667969,31.738281,38.085938,43.945312
0.745383,28.808594,40.527344,44.433594,28.808594
0.747466,31.250000,40.039062,36.621094,31.738281
0.749290,43.457031,38.574219,43.457031,25.390625
0.751372,40.039062,46.386719,36.132812,21.484375
0.753196,14.160156,35.644531,41.992188,16.601562
0.755278,20.019531,47.363281,38.085938,11.718750
0.757102,57.617188,31.250000,39.550781,29.785156
0.761008,36.621094,34.179688,43.945312,42.480469
0.764915,8.300781,38.085938,43.945312,31.250000
0.768821,36.132812,36.132812,41.015625,24.414062
0.772727,11.230469,31.738281,40.527344,14.648438
0.776633,44.921875,29.296875,36.621094,24.414062
0.780540,45.410156,32.226562,37.109375,39.062500
0.784446,22.460938,32.714844,41.992188,30.761719
0.788352,40.527344,29.785156,41.503906,26.367188
0.792258,5.859375,29.785156,40.039062,16.601562
0.796165,43.457031,26.367188,37.109375,22.460938
0.800071,53.222656,27.343750,39.062500,40.039062
0.803977,11.718750,29.296875,42.480469,35.644531
0.807883,42.480469,29.785156,42.968750,34.667969
0.811790,17.089844,31.738281,44.433594,25.878906
0.815696,34.667969,27.343750,41.503906,26.367188
0.819602,57.617188,27.832031,42.968750,45.410156
0.823508,13.183594,33.203125,48.339844,40.527344
0.827415,38.085938,33.691406,45.410156,33.691406
0.856678,20.019531,32.714844,43.945312,24.902344
0.860584,28.320312,29.296875,43.457031,25.390625
0.864490,64.453125,20.507812,43.457031,44.433594
0.868397,23.437500,24.414062,44.921875,40.039062
0.872303,37.109375,29.785156,43.457031,31.250000
0.876209,16.113281,32.714844,43.457031,22.949219
0.878240,58.593750,31.738281,34.667969,32.226562
0.880115,13.183594,37.109375,39.062500,17.089844
0.882147,19.042969,34.179688,34.667969,31.250000
0.884022,61.035156,33.203125,35.156250,34.179688
0.886053,22.949219,34.179688,33.203125,24.902344
0.887928,25.878906,37.597656,38.085938,34.667969
0.889959,28.320312,31.738281,34.667969,14.648438
0.891834,31.738281,38.574219,40.527344,26.855469
0.893865,9.277344,29.785156,33.691406,10.742188
0.895740,20.507812,36.132812,42.480469,18.554688
0.897772,59.570312,25.390625,30.761719,33.691406
0.899647,11.718750,35.644531,39.062500,15.625000
0.901678,37.597656,21.972656,34.179688,37.109375
0.905584,30.273438,20.507812,36.132812,25.878906
0.909490,37.597656,27.343750,35.644531,24.902344
0.913397,9.277344,31.250000,33.691406,15.136719
0.917303,55.175781,30.761719,29.785156,27.343750
0.921209,32.714844,32.226562,33.691406,34.179688
0.951248,13.671875,25.390625,36.621094,23.437500
0.955155,36.621094,25.878906,37.109375,19.042969
0.959061,5.371094,29.296875,35.644531,9.277344
0.962967,44.921875,25.390625,28.808594,23.925781
0.966873,36.621094,32.226562,31.738281,38.574219
0.970780,4.882812,35.156250,35.644531,31.250000
0.973846,9.765625,31.738281,34.179688,15.625000
0.974686,34.179688,34.179688,34.179688,25.390625
0.977753,30.273438,24.414062,30.761719,22.460938
0.978592,9.277344,33.203125,33.691406,11.718750
0.981659,48.339844,21.972656,30.761719,38.574219
0.982498,44.921875,27.832031,29.296875,24.414062
0.985565,11.230469,26.367188,34.667969,33.203125
0.986405,48.339844,31.738281,32.226562,42.968750
0.989471,33.691406,26.855469,34.179688,31.250000
0.990311,13.183594,34.179688,34.667969,31.250000
0.993378,10.742188,28.808594,35.644531,19.531250
0.994217,40.039062,33.203125,33.203125,25.878906
0.997284,32.226562,26.367188,35.156250,22.949219
1.001190,65.429688,26.367188,33.203125,40.527344
1.005096,18.554688,32.226562,36.621094,32.714844
1.009003,36.132812,30.761719,36.621094,24.902344
1.012909,20.019531,27.832031,36.132812,13.671875
1.016815,25.390625,25.390625,33.203125,17.089844
1.046678,66.894531,22.949219,32.714844,37.109375
1.050585,23.925781,29.296875,37.597656,33.203125
1.054491,38.085938,30.761719,36.621094,28.320312
1.058397,27.343750,28.808594,35.644531,20.507812
1.062303,20.019531,28.808594,32.714844,18.066406
1.066210,65.917969,26.855469,29.785156,39.550781
1.067624,26.855469,30.273438,39.062500,31.738281
1.070116,23.437500,28.808594,34.667969,36.132812
1.071531,32.714844,30.761719,35.156250,26.855469
1.074022,23.437500,28.320312,34.667969,23.925781
1.075437,3.906250,31.738281,31.738281,15.625000
1.077928,23.437500,30.761719,35.156250,13.183594
1.079343,53.710938,23.925781,31.250000,32.226562
1.081835,15.625000,29.785156,34.179688,7.812500
1.083249,27.832031,21.484375,34.667969,39.550781
1.085741,61.523438,25.878906,32.226562,28.808594
1.087156,14.160156,26.367188,35.156250,29.785156
1.089647,23.925781,30.273438,37.597656,36.132812
1.091062,28.320312,24.902344,33.203125,22.460938
1.094968,1.953125,24.902344,35.156250,13.671875
1.098874,48.339844,27.343750,34.667969,29.785156
1.102781,33.203125,31.738281,36.132812,40.039062
1.106687,8.300781,35.644531,38.085938,28.320312
1.110593,32.226562,28.808594,36.621094,23.925781
1.139513,6.347656,33.203125,35.644531,14.160156
1.143419,45.898438,31.738281,32.714844,25.878906
1.147326,42.968750,31.250000,36.621094,44.433594
1.151232,14.160156,35.644531,41.503906,35.156250
1.155138,41.503906,35.156250,40.039062,25.878906
1.159044,6.835938,33.203125,40.527344,16.113281
1.162002,57.617188,28.808594,36.621094,39.550781
1.162951,36.621094,27.343750,39.550781,23.437500
1.165908,18.554688,38.574219,38.085938,37.109375
1.166857,44.921875,29.296875,41.503906,36.132812
1.169814,40.039062,36.621094,37.597656,30.761719
1.170763,9.277344,29.296875,43.945312,26.367188
1.173721,19.531250,35.156250,40.039062,21.484375
1.174669,34.667969,23.925781,42.480469,22.949219
1.177627,30.273438,29.785156,40.527344,24.902344
1.178576,4.882812,30.761719,41.503906,13.671875
1.181533,67.871094,28.320312,41.503906,44.921875
1.182482,28.808594,27.343750,38.085938,17.578125
1.185439,23.437500,33.691406,44.921875,41.992188
1.189346,36.621094,34.179688,43.457031,35.156250
1.193252,27.343750,34.667969,43.945312,26.367188
1.197158,26.367188,31.250000,41.992188,20.507812
1.201064,67.871094,28.808594,38.574219,38.574219
1.204971,24.902344,35.156250,42.480469,38.574219
1.234358,30.761719,36.621094,40.527344,28.808594
1.238264,25.878906,36.621094,39.550781,22.949219
1.242171,17.578125,35.644531,38.574219,20.507812
1.246077,66.406250,32.226562,32.714844,41.015625
1.249983,27.832031,37.109375,37.597656,43.457031
1.253889,20.996094,34.667969,41.015625,36.132812
1.257796,26.855469,35.156250,41.992188,30.761719
1.259291,15.136719,40.039062,41.015625,18.554688
1.261702,11.718750,34.179688,38.574219,21.972656
1.263197,60.546875,34.667969,36.621094,36.621094
1.265608,61.035156,26.855469,34.667969,37.597656
1.267103,38.574219,33.203125,39.550781,44.433594
1.269514,29.785156,34.667969,41.992188,42.968750
1.271010,13.183594,30.273438,41.015625,29.785156
1.273421,18.554688,38.085938,46.386719,33.691406
1.274916,36.621094,33.691406,40.039062,22.949219
1.277327,37.597656,39.062500,44.921875,28.320312
1.278822,12.207031,42.480469,38.574219,11.230469
1.282728,53.710938,40.527344,36.621094,24.414062
1.286635,45.410156,37.109375,36.621094,36.132812
1.290541,18.554688,39.062500,35.156250,24.902344
1.294447,43.945312,39.062500,35.644531,22.949219
1.298353,15.625000,35.644531,36.132812,15.625000
1.302260,52.734375,30.761719,31.250000,22.949219
1.306166,58.593750,32.714844,33.691406,38.085938
1.310072,20.507812,35.156250,38.574219,33.691406
1.313978,46.875000,31.738281,38.085938,29.296875
1.317885,17.089844,30.761719,39.062500,18.066406
1.321791,41.503906,29.785156,35.644531,23.925781
1.325697,63.476562,31.250000,36.132812,43.457031
1.329603,18.554688,34.179688,39.062500,37.597656
1.333510,48.339844,32.226562,40.527344,34.667969
1.337416,26.855469,32.226562,42.968750,25.390625
1.341322,30.273438,26.855469,39.550781,27.832031
1.345228,61.523438,29.296875,40.039062,46.875000
1.349135,18.554688,35.156250,46.386719,44.921875
1.378452,36.621094,33.203125,46.386719,39.062500
1.382358,23.437500,29.785156,43.945312,28.808594
1.386264,29.296875,24.902344,41.503906,25.390625
1.390171,69.824219,28.320312,40.039062,43.457031
1.394077,28.808594,36.132812,44.921875,45.898438
1.397983,38.574219,40.039062,41.503906,34.179688
1.399402,8.789062,31.738281,37.109375,14.160156
1.401889,23.925781,40.039062,37.597656,19.531250
1.403308,63.476562,29.296875,31.738281,33.203125
1.405796,16.601562,35.644531,36.621094,20.996094
1.407214,27.832031,36.132812,36.621094,42.968750
1.409702,68.847656,37.109375,35.644531,43.457031
1.411120,23.437500,36.132812,38.574219,34.667969
1.413608,30.273438,41.503906,40.039062,41.503906
1.415027,42.968750,36.621094,38.085938,27.343750
1.417514,23.925781,40.527344,39.062500,29.785156
1.418933,21.484375,36.132812,38.085938,22.460938
1.421421,20.996094,38.574219,39.062500,20.996094
1.422839,74.218750,27.343750,33.203125,37.597656
1.426745,52.246094,33.203125,36.621094,49.316406
1.430652,27.343750,39.062500,41.015625,42.480469
1.434558,51.269531,36.621094,38.085938,33.203125
1.438464,28.320312,33.691406,37.597656,26.367188
1.442370,64.453125,28.320312,36.621094,41.503906
1.472652,52.734375,31.250000,38.574219,52.246094
1.476558,25.390625,29.296875,41.503906,42.480469
1.480464,49.804688,20.019531,39.062500,37.109375
1.484370,21.484375,23.437500,37.597656,27.832031
1.488277,55.175781,30.273438,37.597656,36.621094
1.492183,55.664062,38.085938,40.039062,49.316406
1.494003,38.085938,35.644531,37.109375,31.250000
1.496089,23.437500,41.992188,41.992188,40.039062
1.497909,10.742188,31.738281,36.132812,18.066406
1.499995,46.875000,37.597656,41.503906,33.691406
1.501815,33.203125,30.273438,36.132812,25.390625
1.503902,18.554688,35.644531,41.503906,24.414062
1.505722,61.523438,31.250000,36.621094,43.457031
1.507808,50.781250,32.226562,37.597656,27.832031
1.509628,17.578125,36.621094,40.039062,34.667969
1.511714,64.941406,32.714844,37.597656,40.039062
1.513534,43.457031,35.156250,40.039062,29.296875
1.515620,20.507812,38.085938,40.039062,36.621094
1.517440,23.437500,33.203125,41.503906,19.042969
1.521347,25.390625,30.761719,37.109375,19.531250
1.525253,62.011719,29.296875,32.714844,35.156250
1.529159,20.507812,28.320312,35.156250,31.738281
1.533065,33.691406,25.878906,34.179688,25.878906
1.536972,19.531250,31.738281,35.156250,15.136719
1.565891,17.578125,30.273438,31.250000,10.253906
1.569797,68.847656,27.343750,28.808594,31.738281
1.573704,29.785156,32.714844,35.644531,36.132812
1.577610,38.085938,29.296875,37.109375,31.738281
1.581516,35.644531,29.296875,34.179688,27.832031
1.585422,22.460938,29.785156,31.250000,21.972656
1.586909,40.527344,31.250000,39.062500,43.457031
1.589329,72.265625,27.832031,32.714844,42.480469
1.590815,28.320312,27.343750,41.992188,33.203125
1.593235,38.085938,34.667969,38.085938,47.851562
1.594721,40.527344,30.273438,38.085938,23.925781
1.597141,35.156250,33.203125,37.109375,37.109375
1.598628,13.671875,34.667969,36.621094,13.183594
1.601047,41.503906,31.738281,35.156250,31.738281
1.602534,58.593750,30.273438,34.179688,28.808594
1.604954,20.019531,31.738281,34.667969,19.042969
1.606440,39.550781,36.132812,34.179688,39.550781
1.608860,63.964844,29.785156,32.714844,32.714844
1.610346,12.695312,39.062500,34.667969,27.343750
1.614253,40.527344,29.785156,33.203125,22.949219
1.618159,12.695312,25.390625,31.250000,14.648438
1.622065,47.363281,21.484375,30.761719,26.855469
1.625971,37.597656,28.808594,32.226562,40.527344
1.629878,1.953125,36.132812,33.691406,29.785156
1.658578,31.250000,28.808594,34.179688,23.925781
1.662484,6.835938,22.460938,33.691406,16.113281
1.666390,38.085938,16.601562,32.226562,26.855469
1.670296,45.410156,20.507812,32.226562,41.015625
1.674203,9.765625,31.738281,34.179688,31.738281
1.678109,38.574219,36.132812,35.644531,29.785156
1.680638,29.296875,37.597656,34.667969,20.507812
1.682015,16.601562,38.085938,38.574219,22.460938
1.684545,66.406250,34.179688,34.179688,44.433594
1.685921,42.480469,34.179688,33.203125,28.808594
1.688451,21.484375,40.039062,40.039062,39.062500
1.689828,60.546875,32.714844,32.226562,48.828125
1.692357,37.597656,40.039062,36.621094,30.761719
1.693734,17.578125,36.132812,39.062500,39.550781
1.696263,25.878906,40.039062,35.644531,22.460938
1.697640,45.898438,34.667969,41.015625,30.273438
1.700170,28.320312,36.132812,36.132812,23.925781
1.701546,22.949219,39.062500,41.015625,18.066406
1.704076,74.707031,34.667969,36.621094,45.410156
1.707982,33.203125,41.503906,38.574219,40.039062
1.711888,34.179688,40.527344,36.621094,30.761719
1.715795,29.785156,39.550781,38.574219,19.531250
1.719701,25.390625,37.597656,35.644531,13.671875
1.723607,68.847656,31.250000,32.226562,36.132812
1.752316,31.250000,36.132812,37.597656,42.480469
1.756222,31.250000,38.085938,34.667969,32.714844
1.760129,32.226562,34.179688,31.250000,19.042969
1.764035,16.601562,31.738281,30.273438,10.253906
1.767941,67.382812,28.808594,27.343750,29.296875
1.771847,32.226562,31.738281,32.226562,34.179688
1.773595,50.292969,35.644531,39.062500,30.761719
1.775754,19.042969,33.203125,34.179688,24.414062
1.777501,15.625000,34.667969,39.550781,21.484375
1.779660,35.156250,33.691406,34.179688,19.531250
1.781408,55.175781,30.761719,38.574219,34.179688
1.783566,12.207031,35.644531,36.132812,15.136719
1.785314,44.921875,33.691406,40.527344,43.457031
1.787472,61.523438,30.761719,35.156250,32.714844
1.789220,11.718750,39.550781,41.503906,29.296875
1.791379,41.503906,32.226562,36.132812,42.968750
1.793126,33.691406,34.179688,40.527344,21.484375
1.795285,27.343750,36.132812,38.574219,34.667969
1.797033,7.324219,33.203125,40.527344,13.671875
1.800939,40.039062,28.320312,36.132812,26.367188
1.804845,43.457031,28.320312,37.597656,41.992188
1.808751,15.625000,34.179688,42.968750,35.644531
1.812658,44.433594,34.667969,42.480469,30.761719
1.816564,14.648438,39.062500,41.503906,18.066406
1.846834,40.039062,30.273438,37.597656,25.878906
1.850740,55.664062,23.437500,36.132812,42.968750
1.854647,18.554688,29.785156,39.550781,37.109375
1.858553,42.480469,36.621094,40.527344,34.667969
1.862459,13.183594,42.968750,42.968750,26.855469
1.866365,31.250000,37.109375,40.039062,29.785156
1.868658,20.996094,33.691406,39.550781,41.015625
1.870272,61.035156,31.738281,37.109375,46.386719
1.872564,27.832031,38.574219,39.062500,31.250000
1.874178,11.718750,35.156250,41.992188,40.527344
1.876470,19.531250,37.109375,41.503906,22.949219
1.878084,32.714844,33.691406,41.503906,32.226562
1.880376,15.136719,28.808594,41.992188,21.972656
1.881990,18.554688,33.203125,39.062500,20.019531
1.884283,55.664062,32.714844,40.039062,41.015625
1.885897,21.484375,25.878906,36.621094,19.042969
1.888189,21.484375,36.621094,44.921875,45.410156
1.889803,62.011719,25.390625,36.132812,41.992188
1.892095,27.832031,34.667969,43.945312,35.156250
1.894531,27.832031,30.273438,40.527344,22.949219
1.896001,20.996094,36.132812,42.968750,25.390625
1.898438,4.882812,27.343750,37.597656,14.648438
1.899908,11.230469,33.691406,41.992188,20.996094
1.902344,50.292969,23.925781,38.574219,34.179688
1.903814,60.058594,24.902344,39.062500,38.574219
1.906250,22.949219,29.296875,42.480469,43.457031
1.907720,20.019531,27.832031,41.503906,45.898438
1.910156,10.742188,28.320312,41.992188,28.808594
1.911626,17.578125,29.785156,42.968750,34.667969
1.914063,30.761719,23.925781,40.527344,22.949219
1.917969,7.324219,24.902344,41.015625,18.066406
1.921875,47.851562,24.414062,39.062500,32.226562
1.925781,36.132812,28.320312,41.992188,40.527344
1.929688,19.042969,34.179688,42.968750,31.738281
1.933594,42.968750,36.132812,39.062500,29.296875
1.937500,12.207031,34.179688,39.062500,20.996094
1.941406,46.386719,27.343750,36.132812,29.785156
1.945313,42.968750,27.832031,39.550781,43.457031
1.949219,14.648438,31.250000,41.992188,32.714844
1.953125,41.992188,30.273438,38.085938,24.902344
1.957031,10.253906,28.320312,37.109375,15.625000
1.960938,35.156250,24.902344,35.644531,25.390625
1.964844,43.945312,28.320312,36.132812,45.898438
1.968750,10.253906,34.667969,39.550781,34.667969
1.972656,42.968750,34.179688,38.574219,28.808594
1.976563,15.136719,34.179688,37.597656,19.531250
1.980469,32.714844,31.738281,36.132812,22.460938
1.984375,62.988281,25.878906,36.621094,43.945312
2.013514,19.042969,28.320312,41.015625,40.039062
2.017420,35.644531,36.621094,41.503906,32.714844
2.021327,15.136719,41.015625,41.015625,19.042969
2.025233,24.902344,33.691406,38.085938,18.554688
2.029139,63.964844,36.132812,36.132812,40.039062
2.033045,18.554688,43.945312,39.550781,38.574219
2.036952,32.226562,42.968750,38.574219,29.296875
2.040858,20.996094,44.433594,37.109375,15.625000
2.044764,20.996094,41.503906,34.667969,16.113281
2.048670,68.359375,38.085938,33.203125,40.039062
2.052577,24.414062,39.062500,40.527344,40.039062
2.056483,32.226562,36.621094,39.062500,33.203125
2.086173,28.808594,34.179688,38.574219,23.925781
2.090080,14.160156,29.296875,40.039062,18.066406
2.093986,59.570312,25.878906,35.644531,36.621094
2.097892,24.902344,34.179688,38.085938,34.179688
2.101798,26.367188,38.085938,38.085938,23.437500
2.105705,29.296875,38.574219,39.062500,20.019531
2.107260,57.128906,29.296875,35.644531,25.390625
2.109611,12.207031,37.597656,41.503906,15.625000
2.111166,39.550781,35.644531,38.085938,37.597656
2.113517,64.453125,31.250000,37.109375,32.226562
2.115073,29.785156,43.457031,41.992188,32.226562
2.117423,32.226562,34.667969,39.062500,36.132812
2.118979,54.199219,40.527344,41.503906,27.832031
2.121330,17.578125,38.085938,40.527344,26.367188
2.122885,18.554688,39.062500,41.015625,21.484375
2.125236,35.156250,35.156250,38.085938,21.972656
2.126791,57.617188,39.062500,37.109375,33.203125
2.129142,14.648438,31.738281,38.085938,11.718750
2.130698,49.804688,36.132812,37.109375,41.503906
2.134604,23.925781,32.226562,39.550781,34.179688
2.135087,21.972656,40.039062,41.992188,37.597656
2.138510,46.875000,29.785156,40.039062,27.832031
2.138993,44.921875,39.062500,38.574219,32.714844
2.142416,13.183594,36.132812,39.062500,17.578125
2.142899,17.089844,35.156250,37.109375,19.531250
2.146323,52.246094,36.132812,37.109375,31.738281
2.146805,34.179688,29.785156,32.714844,26.855469
2.150229,60.546875,31.250000,40.039062,47.363281
2.150712,55.664062,29.785156,34.179688,46.875000
2.154618,18.554688,36.132812,38.574219,39.550781
2.158524,38.574219,33.203125,36.621094,30.273438
2.162430,14.648438,32.226562,34.667969,15.136719
2.166337,25.390625,31.250000,33.203125,19.042969
2.170243,55.175781,27.832031,34.667969,39.062500
2.174149,17.578125,29.296875,38.085938,34.179688
2.178055,38.085938,27.343750,36.621094,30.273438
2.181962,16.601562,28.808594,36.132812,22.949219
2.185868,19.042969,32.226562,34.667969,23.925781
2.189774,57.128906,36.621094,34.179688,40.527344
2.193680,14.160156,43.945312,39.062500,37.109375
2.197587,24.902344,42.480469,38.085938,28.320312
2.201493,17.578125,42.968750,36.621094,16.601562
2.205399,15.625000,39.550781,34.179688,14.648438
2.209305,60.546875,36.132812,30.761719,32.714844
2.213212,22.949219,39.550781,36.132812,33.691406
2.217118,30.273438,35.644531,36.621094,30.273438
2.221024,30.761719,35.156250,36.621094,24.902344
2.224930,16.601562,29.785156,37.597656,21.484375
2.254041,68.359375,22.460938,33.203125,39.550781
2.257947,37.109375,33.691406,33.203125,40.527344
2.261854,31.738281,39.062500,34.179688,32.714844
2.265760,45.898438,40.527344,34.667969,27.832031
2.269666,23.925781,39.550781,34.667969,16.601562
2.273572,67.382812,30.273438,31.250000,30.273438
2.275483,20.507812,32.714844,40.527344,31.250000
2.277479,41.992188,34.179688,33.691406,40.527344
2.279389,41.503906,30.273438,40.039062,28.808594
2.281385,19.531250,38.085938,37.597656,31.738281
2.283296,3.906250,32.226562,39.550781,20.019531
2.285291,41.015625,35.156250,37.109375,23.437500
2.287202,41.015625,25.878906,33.691406,25.390625
2.289197,21.972656,33.203125,35.156250,15.625000
2.291108,45.898438,26.367188,38.085938,41.992188
2.293104,58.105469,26.855469,34.179688,29.296875
2.295014,8.300781,30.273438,40.527344,35.644531
2.297010,41.015625,31.250000,39.062500,40.527344
2.298921,33.203125,28.808594,39.550781,27.343750
2.302827,9.765625,30.273438,43.457031,20.507812
2.306733,37.109375,28.320312,40.527344,23.925781
2.310639,45.898438,28.808594,40.039062,37.109375
2.314546,9.277344,30.761719,42.968750,32.714844
2.318452,37.109375,32.714844,41.015625,27.343750
2.347338,12.207031,34.667969,41.992188,18.554688
2.351244,23.925781,33.691406,41.015625,22.460938
2.355151,47.851562,35.156250,40.039062,39.550781
2.359057,12.695312,38.085938,43.457031,35.156250
2.362963,38.574219,36.132812,42.968750,30.273438
2.366869,18.554688,35.644531,43.457031,19.042969
2.370776,24.414062,34.179688,42.480469,22.949219
2.373953,61.035156,32.714844,39.062500,39.550781
2.374682,63.964844,32.714844,38.574219,45.410156
2.377860,16.113281,38.574219,41.015625,39.550781
2.378588,23.925781,33.691406,41.503906,40.527344
2.381766,24.414062,32.226562,41.015625,30.273438
2.382494,36.132812,30.273438,41.503906,31.738281
2.385672,21.972656,30.273438,39.550781,23.437500
2.386401,21.484375,28.320312,40.039062,20.996094
2.389578,10.742188,32.714844,37.597656,19.531250
2.390307,18.066406,31.250000,40.527344,18.554688
2.393485,61.035156,32.714844,35.644531,41.503906
2.397391,25.878906,42.480469,38.574219,41.503906
2.401297,31.738281,41.503906,37.109375,28.320312
2.405203,40.039062,39.062500,37.109375,23.925781
2.409110,14.648438,36.132812,39.062500,20.019531
2.413016,61.035156,28.320312,35.156250,35.156250
2.416922,33.691406,32.226562,36.132812,36.621094
2.420828,21.484375,36.621094,36.621094,26.855469
2.424735,41.015625,37.109375,37.109375,26.855469
2.428641,20.507812,39.062500,38.574219,20.996094
2.432547,69.335938,35.644531,33.203125,33.203125
2.436453,47.363281,38.085938,33.691406,41.503906
2.440360,16.601562,40.039062,36.621094,30.761719
2.444266,41.015625,38.574219,37.109375,27.832031
2.448172,11.230469,33.691406,37.597656,15.625000
2.452078,47.363281,23.437500,35.644531,24.902344
2.455985,45.898438,31.738281,39.062500,42.480469
2.459891,14.160156,38.574219,39.550781,33.203125
2.463797,42.968750,35.156250,36.132812,26.367188
2.494483,11.230469,38.574219,36.621094,17.578125
2.498389,34.667969,34.667969,34.179688,25.878906
2.502295,41.992188,34.667969,35.644531,38.085938
2.506201,6.835938,36.621094,37.597656,28.808594
2.510108,34.667969,34.667969,35.644531,23.925781
2.514014,5.859375,34.179688,32.714844,10.742188
2.517272,66.406250,29.296875,33.691406,41.992188
2.517920,27.832031,26.367188,27.832031,15.136719
2.521178,21.484375,35.644531,38.574219,38.574219
2.521826,54.199219,25.878906,31.250000,33.691406
2.525085,38.574219,34.667969,38.574219,36.621094
2.525733,12.695312,33.691406,36.132812,25.878906
2.528991,18.554688,34.179688,41.015625,29.785156
2.529639,36.132812,32.714844,32.714844,19.531250
2.532897,13.671875,36.132812,39.550781,25.390625
2.533545,20.996094,35.156250,33.691406,12.695312
2.536803,58.105469,34.667969,36.621094,41.503906
2.537451,33.691406,32.226562,33.691406,20.996094
2.540710,16.113281,37.109375,38.085938,36.621094
2.544616,23.437500,34.179688,36.132812,27.343750
2.548522,18.554688,29.296875,38.574219,22.460938
2.552428,13.671875,24.414062,36.621094,17.089844
2.556335,57.617188,24.902344,31.738281,34.179688
2.560241,16.113281,36.621094,36.621094,34.179688
2.590437,21.972656,40.039062,39.062500,25.878906
2.594344,23.437500,39.550781,40.039062,19.042969
2.598250,8.300781,39.062500,39.062500,12.207031
2.602156,62.988281,36.132812,37.109375,32.714844
2.606062,30.273438,38.574219,41.015625,37.109375
2.609969,19.531250,39.550781,41.503906,27.343750
2.612292,10.742188,33.691406,34.667969,13.671875
2.613875,35.644531,38.574219,36.621094,23.437500
2.616199,49.316406,27.343750,32.226562,30.761719
2.617781,11.718750,36.621094,34.667969,12.695312
2.620105,38.085938,30.761719,33.691406,42.480469
2.621687,59.570312,33.203125,33.203125,28.320312
2.624011,11.718750,36.132812,36.621094,34.667969
2.625594,40.039062,36.132812,35.156250,36.621094
2.627917,39.062500,32.714844,33.691406,27.343750
2.629500,17.578125,35.156250,35.156250,28.320312
2.631824,9.765625,31.738281,32.226562,15.625000
2.633406,37.109375,32.226562,34.667969,22.460938
2.635730,46.386719,20.507812,31.738281,26.855469
2.639636,50.781250,24.414062,36.132812,45.410156
2.643542,12.695312,34.179688,38.574219,33.203125
2.647449,38.574219,34.667969,36.621094,22.949219
2.651355,11.230469,40.527344,37.597656,13.183594
2.655261,39.062500,34.667969,34.179688,20.996094
2.685900,52.734375,31.738281,35.156250,36.132812
2.689807,17.578125,37.109375,36.132812,28.808594
2.693713,39.550781,35.644531,36.132812,27.832031
2.697619,7.324219,33.691406,35.644531,15.136719
2.701525,22.949219,25.878906,29.296875,15.625000
2.705432,50.781250,27.343750,30.273438,35.156250
2.706516,41.015625,36.132812,40.039062,24.414062
2.709338,8.789062,37.109375,36.132812,26.855469
2.710422,30.273438,33.203125,41.992188,18.554688
2.713244,31.250000,38.085938,33.691406,17.089844
2.714328,20.019531,29.296875,40.527344,10.742188
2.717150,17.089844,40.039062,34.179688,7.812500
2.718235,64.941406,25.390625,39.550781,32.226562
2.721057,23.925781,36.621094,36.132812,9.765625
2.722141,23.925781,28.808594,43.457031,35.156250
2.724963,61.035156,35.644531,36.621094,33.203125
2.726047,26.367188,25.390625,43.945312,23.437500
2.728869,21.484375,39.550781,39.550781,31.738281
2.729953,25.878906,19.042969,42.480469,15.136719
2.733860,15.136719,18.066406,42.480469,11.230469
2.737766,64.941406,21.484375,42.480469,29.785156
2.741672,26.855469,32.714844,45.898438,35.644531
2.745578,21.972656,39.550781,45.410156,32.226562
2.749485,35.156250,37.597656,42.480469,24.902344
2.778054,13.183594,31.250000,41.503906,15.136719
2.781961,56.152344,26.855469,40.039062,31.738281
2.785867,31.738281,29.785156,41.992188,37.109375
2.789773,22.460938,27.832031,42.480469,24.902344
2.793679,40.527344,25.390625,40.527344,20.507812
2.797586,16.601562,27.832031,41.015625,15.625000
2.799024,49.804688,36.132812,35.156250,34.667969
2.801492,60.058594,26.367188,37.597656,26.855469
2.802930,16.601562,38.085938,40.527344,26.367188
2.805398,42.968750,30.273438,36.621094,35.644531
2.806836,42.968750,38.574219,36.621094,22.949219
2.809304,19.042969,36.132812,38.574219,23.925781
2.810743,12.695312,34.667969,33.691406,9.765625
2.813211,42.968750,37.597656,36.621094,17.578125
2.814649,42.968750,27.832031,32.226562,17.578125
2.817117,18.554688,35.156250,34.179688,9.765625
2.818555,57.617188,32.226562,34.667969,39.550781
2.821023,55.175781,33.203125,32.226562,21.484375
2.822461,20.507812,37.109375,39.550781,29.785156
2.826368,49.804688,36.132812,36.621094,24.414062
2.830274,21.972656,37.597656,38.574219,18.066406
2.834180,37.109375,31.250000,39.062500,27.832031
2.838086,63.964844,29.785156,37.597656,48.339844
2.841993,23.437500,35.156250,40.039062,39.550781
2.871603,38.574219,33.691406,39.550781,29.296875
2.875509,16.601562,34.179688,41.503906,17.578125
2.879415,28.320312,32.714844,39.550781,25.390625
2.883322,64.453125,32.226562,37.597656,43.945312
2.887228,18.554688,36.132812,41.015625,36.621094
2.891134,33.203125,35.644531,41.503906,31.738281
2.893787,20.019531,22.460938,36.132812,23.437500
2.895040,27.343750,37.597656,42.968750,22.949219
2.897693,64.453125,31.250000,33.691406,43.457031
2.898947,25.390625,31.738281,41.015625,20.996094
2.901600,19.531250,41.992188,37.597656,43.945312
2.902853,63.476562,29.785156,38.085938,42.480469
2.905506,18.554688,38.574219,38.574219,38.085938
2.906759,24.414062,34.179688,39.062500,41.503906
2.909412,26.855469,33.203125,37.109375,29.785156
2.910665,35.644531,28.808594,38.574219,32.714844
2.913318,9.765625,28.320312,35.644531,20.507812
2.914572,30.761719,24.414062,37.597656,26.367188
2.917225,56.640625,27.832031,33.203125,36.132812
2.921131,25.878906,37.109375,36.621094,38.574219
2.925037,17.578125,40.527344,39.062500,29.785156
2.928943,35.156250,36.132812,38.574219,22.460938
2.932850,13.671875,32.226562,38.085938,14.648438
2.936756,57.617188,29.296875,35.644531,34.179688
2.966032,41.503906,34.179688,41.015625,42.968750
2.969938,20.996094,35.156250,40.527344,30.761719
2.973844,37.109375,34.179688,37.597656,22.949219
2.977751,12.695312,35.156250,41.015625,15.625000
2.981657,54.687500,30.761719,40.039062,30.761719
2.985563,45.410156,35.156250,44.433594,40.527344
2.987047,43.457031,35.156250,42.480469,26.367188
2.989469,17.089844,37.109375,46.875000,29.785156
2.990953,19.042969,36.621094,40.527344,18.554688
2.993376,41.992188,34.667969,44.921875,26.367188
2.994859,42.480469,34.179688,37.109375,28.320312
2.997282,17.578125,36.132812,44.433594,17.578125
2.998765,62.011719,31.738281,36.132812,47.363281
3.001188,50.292969,31.250000,38.574219,25.390625
3.002672,15.625000,36.132812,40.039062,40.527344
3.005094,51.269531,35.644531,39.062500,42.968750
3.006578,36.132812,34.667969,40.039062,32.226562
3.009001,13.671875,41.015625,43.457031,35.156250
3.010484,14.160156,33.691406,38.085938,19.042969
3.014390,22.949219,30.273438,35.644531,19.531250
3.018297,60.058594,29.296875,35.644531,37.109375
3.022203,17.578125,34.179688,36.621094,32.714844
3.026109,32.714844,33.203125,37.109375,29.785156
3.030015,20.507812,32.226562,40.527344,20.019531
3.059357,18.066406,28.808594,38.574219,18.066406
3.063263,57.128906,26.855469,37.109375,41.015625
3.067169,15.625000,31.738281,42.480469,42.480469
3.071075,27.343750,30.761719,41.503906,32.714844
3.074982,21.484375,31.738281,40.527344,24.414062
3.078888,14.160156,30.761719,40.527344,25.878906
3.080568,28.808594,35.644531,38.574219,41.015625
3.082794,60.546875,27.343750,38.085938,43.457031
3.084474,22.460938,38.574219,36.132812,32.714844
3.086700,19.531250,32.714844,40.527344,37.109375
3.088380,37.597656,35.156250,36.132812,28.320312
3.090607,26.367188,32.714844,40.527344,29.296875
3.092287,14.648438,26.367188,34.667969,20.507812
3.094513,31.250000,30.761719,39.550781,21.484375
3.096193,57.128906,20.507812,29.296875,34.667969
3.098419,4.882812,29.296875,37.597656,14.160156
3.100099,40.039062,33.203125,35.644531,41.503906
3.102325,54.199219,28.808594,35.644531,34.667969
3.104005,23.925781,43.945312,38.085938,29.785156
3.107912,39.062500,39.062500,36.621094,25.390625
3.111818,14.648438,31.738281,39.062500,19.531250
3.115724,56.640625,30.273438,35.156250,32.714844
3.119630,42.480469,31.250000,35.156250,42.480469
3.123537,19.531250,33.691406,38.574219,34.179688
3.154232,42.968750,39.062500,37.109375,30.761719
3.158138,14.648438,38.574219,38.085938,23.437500
3.162044,48.828125,29.785156,34.667969,35.644531
3.165950,48.828125,27.832031,34.667969,51.757812
3.169857,20.507812,31.250000,39.550781,45.898438
3.173763,44.921875,34.179688,39.062500,37.597656
3.175409,26.855469,25.390625,37.597656,28.320312
3.177669,11.718750,32.226562,37.597656,23.437500
3.179315,56.640625,25.878906,38.085938,46.386719
3.181575,35.644531,21.972656,33.691406,28.808594
3.183221,19.042969,32.714844,43.945312,39.062500
3.185482,51.269531,28.808594,36.132812,45.898438
3.187128,41.992188,33.691406,43.457031,34.667969
3.189388,9.277344,33.203125,41.015625,36.621094
3.191034,17.089844,34.667969,43.457031,23.925781
3.193294,35.156250,28.320312,39.062500,25.878906
3.194940,16.113281,29.296875,40.039062,21.972656
3.197200,11.230469,28.808594,39.550781,19.042969
3.198846,54.687500,24.414062,36.621094,39.062500
3.202753,16.113281,27.832031,35.644531,30.761719
3.206659,30.761719,29.296875,31.250000,22.460938
3.210565,22.460938,31.250000,33.203125,15.625000
3.214471,16.601562,27.343750,32.226562,12.695312
3.218378,62.500000,27.832031,28.808594,32.226562
3.248412,23.925781,31.738281,34.179688,29.296875
3.252318,25.390625,28.808594,36.621094,20.019531
3.256224,23.925781,32.226562,34.667969,13.671875
3.260131,12.207031,32.226562,32.226562,11.230469
3.264037,57.617188,26.855469,30.761719,31.738281
3.267943,21.484375,33.691406,34.179688,30.761719
3.269451,36.132812,32.226562,39.062500,20.507812
3.271849,21.972656,35.644531,35.156250,21.484375
3.273357,7.812500,31.738281,40.039062,12.207031
3.275756,34.667969,34.179688,36.621094,19.531250
3.277263,54.687500,20.507812,37.109375,28.808594
3.279662,8.300781,32.226562,35.156250,8.789062
3.281169,37.109375,21.972656,42.480469,41.992188
3.283568,54.687500,28.808594,30.761719,21.484375
3.285076,14.648438,36.132812,46.386719,35.156250
3.287474,28.320312,31.250000,34.667969,29.785156
3.288982,40.527344,40.527344,41.503906,28.320312
3.291381,18.554688,31.738281,37.109375,23.925781
3.292888,12.695312,40.527344,37.597656,14.648438
3.296794,49.316406,34.667969,33.691406,27.832031
3.300701,49.316406,36.132812,38.085938,45.410156
3.304607,22.460938,36.621094,41.015625,36.132812
3.308513,44.433594,31.250000,38.574219,26.855469
3.312419,10.253906,30.761719,39.062500,18.066406
3.341117,38.085938,25.390625,37.109375,25.878906
3.345023,50.292969,28.320312,38.574219,41.015625
3.348929,11.718750,34.179688,38.085938,35.156250
3.352835,38.085938,28.808594,37.597656,30.273438
3.356742,18.066406,28.808594,40.039062,19.042969
3.360648,35.156250,27.832031,34.667969,21.972656
3.362281,12.695312,30.761719,39.062500,32.226562
3.364554,62.500000,28.808594,36.132812,43.945312
3.366187,33.203125,29.785156,37.597656,27.832031
3.368460,20.996094,38.574219,42.968750,39.550781
3.370093,18.554688,31.250000,39.550781,20.996094
3.372367,42.968750,39.062500,41.992188,27.343750
3.374000,15.136719,29.296875,38.085938,23.437500
3.376273,25.390625,34.179688,39.062500,14.160156
3.377906,58.105469,24.902344,34.179688,42.968750
3.380179,27.343750,29.785156,35.156250,16.113281
3.381812,17.089844,31.250000,37.109375,41.992188
3.384085,57.128906,27.832031,36.132812,35.156250
3.385718,24.902344,28.320312,37.597656,31.250000
3.389625,10.253906,26.855469,39.550781,20.019531
3.393531,-1.464844,24.902344,38.085938,12.207031
3.397437,55.664062,22.460938,35.156250,34.179688
3.401343,23.437500,26.367188,40.527344,40.039062
3.405250,20.507812,22.460938,39.550781,27.832031
3.434469,24.902344,21.484375,37.597656,19.531250
3.438375,8.789062,29.296875,39.062500,15.136719
3.442281,54.687500,30.761719,36.132812,30.761719
3.446187,24.902344,26.855469,37.109375,33.203125
3.450094,16.601562,32.714844,34.667969,24.902344
3.454000,31.250000,36.132812,34.667969,25.390625
3.455850,50.781250,18.554688,32.226562,25.878906
3.457906,3.417969,33.691406,34.667969,20.996094
3.459756,40.039062,26.367188,36.132812,43.457031
3.461812,46.386719,26.855469,31.738281,33.203125
3.463662,17.089844,41.992188,39.550781,34.179688
3.465719,34.179688,27.832031,37.109375,40.527344
3.467568,40.039062,44.921875,38.085938,25.390625
3.469625,18.066406,30.273438,40.039062,33.691406
3.471475,8.789062,46.875000,37.109375,16.601562
3.473531,38.085938,31.738281,37.109375,30.273438
3.475381,40.527344,41.503906,31.738281,25.878906
3.477437,12.207031,29.296875,36.132812,17.089844
3.479287,41.992188,36.132812,33.691406,42.968750
3.483193,10.742188,37.109375,40.039062,32.226562
3.487100,38.574219,34.667969,38.085938,23.437500
3.491006,9.277344,31.738281,38.574219,16.113281
3.494912,33.691406,29.785156,38.085938,28.808594
3.498818,58.105469,32.226562,37.109375,47.363281
3.528505,19.531250,36.132812,38.085938,37.109375
3.532411,40.039062,34.179688,36.132812,28.808594
3.536317,19.042969,34.179688,36.621094,17.089844
3.540224,33.203125,29.296875,31.738281,18.066406
3.544130,56.152344,25.390625,31.250000,40.039062
3.548036,12.695312,32.714844,39.550781,37.109375
3.549477,21.484375,28.320312,40.039062,21.484375
3.551942,34.179688,33.691406,37.597656,26.855469
3.553383,11.230469,30.761719,33.691406,17.578125
3.555849,11.230469,28.320312,35.156250,17.089844
3.557289,58.593750,26.367188,29.785156,33.203125
3.559755,15.625000,23.925781,35.156250,22.460938
3.561196,28.320312,35.644531,36.132812,37.109375
3.563661,55.664062,24.414062,35.156250,39.550781
3.565102,36.132812,39.062500,38.085938,29.296875
3.567567,8.789062,30.273438,36.621094,28.320312
3.569008,37.597656,37.597656,36.621094,21.972656
3.571474,24.902344,26.367188,38.574219,22.949219
3.572914,19.531250,34.667969,34.667969,15.625000
3.576821,66.894531,26.367188,31.738281,31.250000
3.580727,31.738281,33.691406,34.667969,41.015625
3.584633,20.996094,37.597656,38.085938,34.667969
3.588539,32.714844,33.203125,39.062500,31.250000
3.592446,11.230469,31.250000,37.109375,23.437500
3.621902,57.617188,28.320312,33.691406,37.597656
3.625808,34.179688,34.667969,37.597656,47.851562
3.629715,16.113281,36.132812,40.039062,35.644531
3.633621,38.574219,35.644531,39.550781,29.296875
3.637527,10.253906,34.667969,39.062500,19.042969
3.641433,48.828125,28.320312,34.179688,32.226562
3.644263,13.183594,39.550781,38.085938,39.550781
3.645340,36.132812,32.714844,37.597656,42.480469
3.648169,41.503906,43.945312,39.550781,36.132812
3.649246,10.742188,36.621094,44.433594,31.738281
3.652075,11.230469,43.457031,40.039062,22.460938
3.653152,33.691406,34.667969,43.457031,27.343750
3.655982,33.203125,37.597656,33.691406,24.902344
3.657058,10.742188,34.179688,43.457031,18.554688
3.659888,46.386719,38.574219,32.714844,41.503906
3.660965,53.222656,26.855469,39.550781,32.714844
3.663794,7.812500,41.992188,34.667969,31.738281
3.664871,50.292969,27.343750,37.597656,48.828125
3.667700,37.597656,34.179688,31.738281,25.878906
3.671607,15.136719,31.738281,31.250000,14.648438
3.675513,27.343750,36.132812,29.296875,15.136719
3.679419,56.152344,41.503906,28.808594,35.156250
3.683325,17.578125,40.039062,35.156250,34.179688
3.687232,38.574219,40.039062,36.621094,30.761719
3.716332,17.578125,42.480469,37.109375,19.042969
3.720238,21.972656,37.109375,37.597656,20.019531
3.724144,66.406250,32.226562,37.109375,42.480469
3.728051,26.367188,35.644531,40.039062,39.062500
3.731957,33.203125,34.667969,39.062500,27.343750
3.735863,23.437500,35.156250,38.574219,18.554688
3.737386,62.011719,28.320312,38.085938,39.550781
3.739769,23.925781,33.203125,38.574219,18.554688
3.741292,30.273438,34.179688,39.550781,42.968750
3.743676,67.382812,31.250000,35.644531,36.621094
3.745198,27.832031,34.179688,41.015625,33.691406
3.747582,23.437500,36.621094,37.109375,34.179688
3.749105,37.109375,33.691406,41.015625,27.343750
3.751488,29.785156,34.667969,39.062500,26.855469
3.753011,14.648438,36.132812,40.527344,20.019531
3.755394,29.785156,33.203125,39.062500,20.507812
3.756917,60.546875,27.832031,39.062500,35.644531
3.759301,14.160156,31.250000,39.062500,17.089844
3.760823,37.597656,30.273438,37.597656,38.085938
3.764730,22.460938,38.574219,37.597656,28.320312
3.768636,34.667969,40.527344,40.039062,26.367188
3.772542,10.253906,40.039062,37.109375,16.113281
3.776448,55.664062,34.667969,32.714844,32.226562
3.780355,41.015625,36.621094,37.109375,44.921875
3.809835,16.601562,38.574219,37.597656,33.203125
3.813741,41.015625,36.621094,35.156250,25.390625
3.817647,16.113281,37.597656,36.132812,16.601562
3.821554,53.710938,34.667969,35.156250,28.320312
3.825460,48.339844,34.667969,37.109375,41.503906
3.829366,17.089844,36.132812,35.644531,30.273438
3.831173,17.578125,41.015625,42.480469,8.789062
3.833272,42.968750,36.132812,32.714844,20.996094
3.835080,34.179688,38.574219,40.527344,19.531250
3.837179,11.718750,33.691406,36.132812,12.207031
3.838986,57.128906,37.597656,40.527344,40.039062
3.841085,43.457031,20.996094,33.691406,22.460938
3.842892,16.601562,40.039062,43.457031,35.156250
3.844991,57.128906,20.996094,36.132812,40.039062
3.846798,39.550781,40.527344,42.480469,32.226562
3.848897,15.625000,31.250000,42.480469,30.273438
3.850705,18.554688,42.968750,44.433594,18.066406
3.852804,40.039062,38.085938,41.015625,19.042969
3.854611,25.878906,40.039062,43.457031,18.554688
3.858517,62.500000,35.644531,41.503906,37.109375
3.862423,31.250000,39.062500,43.945312,32.714844
3.866330,42.480469,37.109375,43.457031,29.296875
3.870236,17.578125,36.621094,41.503906,18.554688
3.874142,23.437500,34.179688,39.062500,18.554688
3.902882,66.894531,30.761719,37.109375,40.527344
3.906788,23.925781,36.621094,40.039062,41.503906
3.910694,34.667969,37.109375,39.550781,35.644531
3.914601,28.320312,36.132812,39.550781,25.878906
3.918507,21.484375,35.644531,37.597656,21.972656
3.922413,68.359375,34.179688,32.226562,43.945312
3.923590,29.296875,39.550781,39.550781,35.156250
3.926319,31.250000,37.109375,38.085938,43.945312
3.927496,36.621094,35.156250,40.527344,31.250000
3.930226,34.667969,35.156250,38.574219,32.226562
3.931402,12.207031,32.714844,42.480469,17.089844
3.934132,44.433594,37.109375,40.039062,29.785156
3.935309,60.058594,30.761719,37.109375,30.761719
3.938038,23.437500,36.621094,41.503906,21.484375
3.939215,38.085938,37.109375,39.550781,42.480469
3.941944,64.941406,32.714844,37.109375,42.480469
3.943121,13.671875,45.898438,41.992188,30.761719
3.945851,37.597656,36.621094,39.550781,47.851562
3.947027,35.644531,40.039062,38.574219,22.460938
3.950934,12.207031,35.156250,39.062500,15.136719
3.954840,51.269531,30.761719,38.085938,31.250000
3.958746,41.015625,32.226562,40.527344,43.457031
3.962652,15.136719,33.691406,42.480469,32.226562
3.966559,44.433594,35.644531,41.992188,30.273438
3.995992,12.207031,39.550781,41.992188,19.531250
3.999899,41.992188,27.832031,35.156250,27.832031
4.003805,52.246094,29.296875,36.621094,44.921875
4.007711,15.136719,39.062500,41.992188,36.132812
4.011617,37.109375,39.062500,39.550781,32.714844
4.015524,6.347656,43.945312,40.039062,22.949219
4.018529,62.988281,41.992188,30.273438,40.039062
4.019430,32.714844,37.109375,34.667969,24.902344
4.022435,18.554688,44.433594,35.156250,34.179688
4.023336,52.246094,27.832031,32.714844,40.039062
4.026341,41.503906,40.039062,33.203125,26.367188
4.027242,10.253906,31.250000,34.667969,33.691406
4.030247,23.437500,37.109375,34.179688,16.601562
4.031149,37.109375,35.644531,30.761719,28.808594
4.034154,20.996094,33.691406,34.667969,17.578125
4.035055,14.160156,43.457031,28.808594,15.625000
4.038060,63.964844,31.250000,31.250000,40.527344
4.038961,32.226562,43.945312,28.320312,19.042969
4.041966,21.972656,34.179688,34.179688,35.644531
4.045872,36.621094,34.179688,36.132812,27.343750
4.049779,31.250000,35.156250,40.039062,22.949219
4.053685,22.460938,34.667969,37.109375,20.019531
4.057591,68.359375,29.785156,32.714844,39.062500
4.061497,21.972656,33.203125,38.085938,41.503906
4.091456,24.902344,34.667969,38.085938,33.691406
4.095362,30.761719,34.667969,36.132812,20.996094
4.099269,11.230469,33.203125,34.667969,12.207031
4.103175,57.617188,29.785156,32.226562,33.203125
4.107081,26.855469,35.644531,34.667969,37.109375
4.110987,20.507812,36.621094,37.597656,27.343750
4.113143,5.859375,30.273438,38.085938,15.136719
4.114894,37.597656,30.761719,39.062500,22.460938
4.117049,46.875000,22.460938,33.691406,29.296875
4.118800,14.160156,30.761719,37.597656,20.996094
4.120955,40.039062,25.390625,33.203125,41.503906
4.122706,56.640625,30.761719,32.226562,37.597656
4.124862,14.648438,33.691406,35.156250,32.226562
4.126612,34.667969,31.738281,36.132812,41.503906
4.128768,36.132812,32.714844,37.109375,23.437500
4.130519,19.531250,33.203125,39.062500,33.203125
4.132674,8.789062,34.179688,38.085938,12.695312
4.134425,34.179688,31.738281,38.085938,24.414062
4.136580,40.527344,27.343750,33.203125,21.484375
4.140487,45.410156,27.343750,37.109375,38.574219
4.144393,13.183594,33.691406,43.457031,35.156250
4.148299,38.574219,31.250000,38.574219,30.761719
4.152205,17.578125,31.738281,37.597656,24.902344
4.156112,43.945312,25.878906,35.644531,31.250000
4.186226,54.199219,25.390625,35.156250,44.921875
4.190133,15.136719,30.273438,39.062500,38.085938
4.194039,44.433594,31.738281,39.062500,38.085938
4.197945,19.531250,32.714844,39.062500,28.320312
4.201851,34.667969,28.320312,36.621094,27.832031
4.205758,62.500000,30.273438,36.132812,50.292969
4.207354,30.273438,42.968750,38.085938,33.203125
4.209664,19.042969,30.761719,41.503906,44.433594
4.211260,22.460938,42.480469,37.109375,27.343750
4.213570,37.109375,24.414062,42.968750,33.203125
4.215167,20.996094,37.597656,35.156250,28.320312
4.217476,18.554688,17.578125,46.386719,24.414062
4.219073,72.265625,34.179688,34.179688,50.781250
4.221383,20.996094,11.230469,42.968750,25.390625
4.222979,33.691406,38.085938,39.062500,51.757812
4.225289,52.734375,29.296875,36.621094,42.480469
4.226885,34.179688,38.574219,40.039062,42.968750
4.229195,12.695312,44.433594,39.550781,39.550781
4.230792,29.785156,37.109375,40.527344,30.761719
4.234698,15.625000,34.179688,39.062500,23.925781
4.238604,72.265625,33.691406,35.644531,47.363281
4.242510,34.667969,36.621094,38.085938,51.757812
4.246417,24.414062,37.109375,39.550781,39.550781
4.250323,36.132812,35.644531,41.503906,34.667969
4.280138,21.484375,33.203125,43.945312,30.273438
4.284044,69.824219,31.738281,43.945312,51.757812
4.287951,41.992188,35.156250,48.339844,60.546875
4.291857,28.808594,36.132812,47.851562,47.851562
4.295763,39.550781,34.667969,44.921875,41.015625
4.299669,10.742188,31.738281,42.968750,28.320312
4.301546,46.875000,30.761719,42.480469,48.828125
4.303576,56.152344,28.320312,40.039062,39.062500
4.305452,22.949219,39.062500,45.898438,37.597656
4.307482,42.480469,31.250000,42.968750,49.316406
4.309359,48.828125,37.597656,44.921875,35.156250
4.311388,16.601562,30.761719,45.410156,37.109375
4.313265,16.113281,35.156250,42.968750,23.437500
4.315294,43.457031,31.250000,44.433594,35.644531
4.317171,41.503906,30.761719,38.085938,28.320312
4.319201,19.531250,31.738281,43.945312,30.273438
4.321077,47.363281,32.714844,41.015625,45.898438
4.323107,52.734375,23.925781,40.039062,38.574219
4.324984,11.230469,36.621094,44.921875,37.109375
4.328890,40.039062,36.621094,41.503906,33.203125
4.332796,14.648438,36.132812,41.015625,24.902344
4.336702,35.156250,30.761719,40.527344,32.226562
4.340609,59.082031,31.250000,40.039062,46.386719
4.344515,14.160156,37.597656,41.992188,32.714844
4.374032,36.132812,37.109375,41.015625,28.320312
4.377938,20.019531,37.597656,41.503906,22.460938
4.381845,31.738281,33.203125,37.597656,22.460938
4.385751,66.406250,25.878906,36.132812,40.527344
4.389657,15.625000,28.320312,40.527344,33.203125
4.393563,27.343750,29.785156,39.550781,25.390625
4.395827,21.972656,42.480469,39.550781,20.996094
4.397470,18.066406,25.878906,39.550781,18.554688
4.399733,68.847656,31.738281,34.179688,40.527344
4.401376,19.531250,21.484375,39.062500,18.066406
4.403639,28.808594,30.761719,37.597656,41.992188
4.405282,63.964844,23.925781,40.039062,40.527344
4.407545,28.320312,31.250000,39.062500,34.667969
4.409188,20.996094,36.621094,42.968750,40.039062
4.411452,32.226562,25.878906,39.062500,28.320312
4.413095,28.808594,41.015625,41.015625,30.273438
4.415358,12.695312,24.414062,36.621094,25.390625
4.417001,27.832031,43.457031,41.015625,21.484375
4.419264,60.546875,26.367188,34.179688,39.550781
4.423170,29.785156,32.226562,38.574219,40.527344
4.427077,12.695312,40.527344,40.039062,29.296875
4.430983,28.320312,38.574219,40.039062,21.972656
4.434889,8.300781,30.761719,39.062500,13.671875
4.438795,53.710938,28.808594,33.691406,29.296875
4.467709,35.156250,38.574219,36.621094,40.527344
4.471615,17.089844,38.085938,40.527344,33.691406
4.475522,41.992188,28.808594,38.085938,30.273438
4.479428,15.136719,33.691406,35.156250,21.972656
4.483334,49.804688,29.785156,31.250000,36.621094
4.487240,42.968750,30.273438,33.691406,45.898438
4.488674,47.851562,32.226562,34.179688,26.855469
4.491147,18.554688,35.156250,35.156250,33.203125
4.492581,17.089844,29.296875,35.156250,14.648438
4.495053,44.433594,35.156250,34.179688,28.320312
4.496487,35.644531,22.949219,30.273438,19.042969
4.498959,20.019531,37.597656,36.132812,16.601562
4.500393,52.246094,22.460938,29.296875,38.574219
4.502865,56.152344,32.226562,31.250000,25.390625
4.504299,14.648438,30.761719,35.156250,36.132812
4.506772,59.570312,33.203125,32.226562,45.410156
4.508206,46.875000,32.714844,34.667969,29.785156
4.510678,22.460938,37.597656,35.156250,37.597656
4.512112,23.437500,32.714844,32.714844,18.554688
4.516018,23.437500,31.738281,28.808594,21.972656
4.519924,53.222656,34.179688,30.273438,41.992188
4.523831,18.554688,37.109375,34.667969,36.621094
4.527737,36.132812,34.179688,34.667969,27.832031
4.531643,16.113281,33.203125,37.109375,19.531250
4.560643,19.531250,30.761719,34.667969,22.949219
4.564549,60.546875,28.320312,30.761719,45.898438
4.568456,20.507812,33.691406,37.109375,45.898438
4.572362,31.738281,31.738281,40.039062,38.574219
4.576268,21.972656,30.273438,37.109375,26.367188
4.580174,13.671875,30.273438,33.203125,19.531250
4.581852,30.273438,34.667969,32.226562,32.714844
4.584081,57.128906,25.878906,31.738281,40.527344
4.585759,20.507812,35.644531,33.691406,22.949219
4.587987,22.460938,27.832031,38.085938,40.527344
4.589665,24.902344,30.273438,34.179688,19.531250
4.591893,29.296875,28.320312,36.621094,28.808594
4.593571,4.394531,28.320312,34.179688,10.253906
4.595799,31.738281,36.621094,34.179688,19.531250
4.597477,52.734375,26.855469,30.273438,26.855469
4.599706,16.113281,39.550781,31.250000,11.718750
4.601384,26.855469,31.738281,32.714844,40.039062
4.603612,63.964844,31.738281,27.832031,29.785156
4.605290,13.183594,35.156250,36.132812,30.761719
4.609196,44.433594,34.179688,35.644531,24.902344
4.613102,16.601562,31.250000,34.667969,16.601562
4.617009,47.363281,25.878906,31.250000,28.808594
4.620915,43.945312,29.785156,33.203125,41.503906
4.624821,24.902344,26.855469,37.597656,30.761719
4.631634,43.457031,24.902344,35.644531,22.460938
4.635540,11.718750,31.738281,36.132812,15.136719
4.639446,44.433594,29.296875,34.179688,28.808594
4.643353,39.550781,31.250000,35.644531,42.480469
4.647259,4.394531,37.109375,41.015625,33.203125
4.651165,33.691406,36.132812,38.085938,28.808594
4.655071,7.324219,35.644531,37.597656,18.066406
4.658978,41.015625,33.691406,34.179688,25.390625
4.662884,56.640625,35.156250,34.179688,42.968750
4.666790,13.183594,39.550781,38.574219,33.691406
4.670696,37.109375,35.644531,39.550781,28.320312
4.674603,13.183594,33.691406,40.527344,17.578125
4.678509,27.343750,29.785156,36.621094,20.019531
4.682415,50.781250,29.296875,36.132812,39.550781
4.686321,6.347656,34.179688,40.039062,31.738281
4.690228,26.367188,30.273438,38.085938,24.902344
4.694134,5.859375,26.855469,36.621094,15.136719
4.698040,6.347656,29.296875,31.738281,13.183594
4.699710,43.945312,36.132812,29.785156,29.785156
4.703616,5.371094,37.109375,35.156250,28.808594
4.707522,19.531250,37.597656,35.156250,23.437500
4.711428,8.789062,45.898438,37.109375,14.160156
4.715335,11.230469,39.550781,36.132812,13.183594
4.719241,61.035156,35.644531,33.203125,35.156250
4.748968,15.625000,42.480469,37.597656,38.574219
4.752874,21.972656,41.503906,40.039062,27.832031
4.756780,29.296875,38.574219,38.085938,12.207031
4.760687,17.578125,37.109375,34.179688,7.812500
4.764593,58.593750,31.738281,34.667969,29.296875
4.768499,22.460938,31.250000,39.550781,32.226562
4.770102,38.085938,33.203125,40.527344,28.808594
4.772405,18.554688,28.808594,37.109375,21.972656
4.774008,7.812500,35.156250,38.085938,20.507812
4.776312,26.855469,31.250000,37.597656,16.601562
4.777914,56.640625,28.808594,35.644531,37.109375
4.780218,5.859375,36.132812,37.109375,12.207031
4.781820,49.804688,32.226562,40.039062,48.828125
4.784124,52.734375,34.667969,33.691406,27.832031
4.785727,27.343750,37.109375,40.527344,37.597656
4.788030,30.761719,38.085938,35.156250,37.109375
4.789633,48.828125,37.109375,39.550781,30.273438
4.791937,22.949219,34.667969,38.085938,33.203125
4.793539,18.066406,40.039062,37.597656,24.902344
4.797445,58.593750,37.109375,33.203125,39.062500
4.801352,52.246094,38.085938,35.156250,51.757812
4.805258,16.113281,40.527344,38.574219,40.527344
4.809164,50.292969,35.644531,34.179688,33.691406
4.813070,20.507812,35.156250,34.667969,26.855469
4.842114,48.339844,31.250000,35.644531,33.691406
4.846020,60.058594,30.273438,37.109375,48.339844
4.849927,22.949219,33.203125,40.039062,41.015625
4.853833,44.433594,31.250000,38.085938,36.621094
4.857739,16.601562,34.179688,38.085938,26.855469
4.861645,34.179688,30.273438,35.644531,30.273438
4.863680,10.253906,40.527344,37.109375,33.203125
4.865552,52.246094,26.367188,36.621094,44.433594
4.867586,35.156250,35.644531,37.597656,29.785156
4.869458,10.742188,24.902344,40.527344,36.132812
4.871493,26.367188,34.179688,38.085938,26.367188
4.873364,32.226562,26.855469,40.039062,31.738281
4.875399,29.785156,35.156250,37.109375,25.878906
4.877270,14.648438,33.203125,38.574219,20.507812
4.879305,75.195312,35.156250,37.109375,44.921875
4.881177,25.390625,32.226562,32.714844,16.601562
4.883211,31.738281,35.644531,38.574219,42.968750
4.885083,52.246094,35.156250,32.226562,34.179688
4.887118,40.039062,32.226562,36.132812,34.179688
4.891024,29.296875,35.156250,37.109375,27.832031
4.894930,20.507812,34.667969,36.132812,22.949219
4.898836,74.707031,32.226562,31.250000,46.386719
4.902743,36.132812,41.992188,33.691406,46.386719
4.906649,37.109375,43.457031,34.179688,34.179688
4.936551,41.503906,38.574219,32.226562,25.878906
4.940457,23.925781,37.597656,32.226562,20.507812
4.944364,69.824219,31.250000,30.273438,39.550781
4.948270,37.109375,31.250000,32.714844,43.457031
4.952176,23.925781,26.367188,36.132812,32.226562
4.956082,34.667969,24.902344,38.085938,25.390625
4.957946,53.710938,27.343750,34.179688,26.855469
4.959989,12.695312,33.691406,35.156250,18.066406
4.961852,41.503906,32.714844,36.621094,40.527344
4.963895,57.128906,33.691406,29.785156,29.296875
4.965759,15.136719,41.503906,38.085938,28.320312
4.967801,38.085938,36.132812,31.250000,37.597656
4.969665,41.015625,39.550781,35.156250,25.390625
4.971707,16.113281,38.574219,34.179688,25.878906
4.973571,12.207031,37.109375,34.667969,14.648438
4.975614,37.109375,30.273438,35.644531,21.484375
4.977477,50.292969,30.761719,32.226562,20.507812
4.979520,14.160156,26.367188,36.132812,14.160156
4.981384,50.781250,29.785156,33.691406,38.085938
4.985290,6.347656,33.203125,35.644531,32.714844
4.989196,39.550781,31.738281,32.226562,27.343750
4.993102,14.648438,32.226562,33.691406,20.019531
4.997009,36.621094,28.808594,29.296875,26.367188
5.000915,57.617188,25.390625,28.808594,43.457031
5.031653,17.089844,27.343750,36.132812,37.109375
5.035559,41.503906,28.320312,36.132812,30.761719
5.039465,18.066406,28.320312,36.621094,21.972656
5.043372,30.761719,25.878906,35.644531,24.902344
5.047278,62.988281,25.878906,35.156250,46.386719
5.051184,15.625000,28.808594,39.550781,41.503906
5.054305,31.250000,29.785156,42.968750,31.250000
5.055090,35.156250,27.832031,42.480469,35.156250
5.058211,20.507812,27.832031,41.992188,25.390625
5.058997,22.949219,26.855469,41.992188,25.878906
5.062117,68.847656,21.484375,38.085938,41.992188
5.062903,25.390625,26.367188,40.039062,24.902344
5.066024,24.414062,21.484375,42.480469,39.550781
5.066809,66.894531,28.320312,40.527344,50.292969
5.069930,23.925781,27.343750,44.921875,26.855469
5.070715,26.855469,34.179688,46.386719,46.386719
5.073836,28.320312,32.714844,43.945312,21.484375
5.074622,44.433594,33.203125,45.410156,35.644531
5.077742,11.230469,32.714844,42.480469,13.183594
5.081649,58.593750,24.902344,38.085938,27.343750
5.085555,26.367188,30.761719,39.062500,37.597656
5.089461,17.578125,36.132812,41.992188,30.761719
5.093367,29.296875,31.738281,39.550781,19.531250
5.097274,10.253906,28.320312,35.156250,9.765625
5.126614,54.687500,26.855469,31.250000,28.320312
5.130521,29.785156,28.808594,31.738281,31.738281
5.134427,10.742188,31.250000,33.691406,15.625000
5.138333,32.226562,25.878906,34.667969,12.695312
5.142239,9.277344,23.437500,36.132812,8.789062
5.146146,52.734375,28.808594,33.691406,24.414062
5.149301,11.718750,37.109375,38.085938,30.761719
5.150052,41.503906,38.085938,34.667969,34.667969
5.153208,35.644531,36.132812,36.621094,25.390625
5.153958,16.113281,40.527344,36.621094,25.390625
5.157114,12.207031,37.109375,36.621094,13.183594
5.157864,44.921875,39.062500,36.132812,21.484375
5.161020,39.550781,32.714844,34.667969,18.554688
5.161771,14.160156,37.109375,34.179688,13.671875
5.164926,53.710938,35.644531,34.179688,36.621094
5.165677,44.921875,30.273438,31.250000,22.949219
5.168833,17.578125,37.597656,37.109375,27.832031
5.169583,48.339844,34.179688,34.667969,37.109375
5.172739,42.480469,32.226562,37.597656,22.949219
5.176645,17.089844,32.714844,40.039062,14.160156
5.180551,34.179688,30.761719,38.085938,19.042969
5.184458,60.546875,31.250000,37.109375,38.085938
5.188364,18.066406,34.179688,37.597656,25.878906
5.192270,34.667969,33.691406,35.156250,19.042969
5.221200,11.230469,34.179688,36.132812,9.277344
5.225106,20.507812,30.273438,36.621094,11.230469
5.229012,63.476562,20.507812,34.667969,36.132812
5.232919,21.484375,25.878906,38.085938,34.179688
5.236825,37.109375,34.667969,40.039062,29.785156
5.240731,25.390625,35.644531,39.062500,22.949219
5.244569,62.011719,21.972656,32.226562,31.738281
5.244637,22.949219,24.902344,35.644531,18.066406
5.248475,28.320312,27.343750,33.691406,33.691406
5.248544,67.382812,21.484375,32.714844,34.667969
5.252381,19.042969,30.761719,35.156250,20.996094
5.252450,25.390625,36.132812,38.085938,33.203125
5.256287,26.855469,28.808594,36.132812,14.160156
5.256356,32.714844,30.273438,36.621094,27.343750
5.260194,6.835938,27.343750,36.132812,9.277344
5.260262,29.785156,27.343750,33.203125,20.507812
5.264100,53.222656,25.878906,33.203125,27.343750
5.264169,13.183594,26.855469,35.156250,13.671875
5.268006,29.785156,27.343750,35.644531,33.691406
5.271912,16.601562,30.761719,39.550781,25.878906
5.272914,6.347656,28.808594,37.597656,25.390625
5.275819,32.714844,31.250000,38.574219,21.484375
5.276820,27.832031,24.902344,36.621094,20.996094
5.279725,11.230469,23.437500,35.156250,11.718750
5.280726,0.488281,24.902344,38.085938,11.230469
5.283631,48.339844,15.625000,32.226562,26.367188
5.284633,40.527344,24.902344,36.132812,20.507812
5.287537,27.343750,23.437500,35.156250,35.156250
5.288539,39.550781,35.156250,38.085938,34.667969
5.292445,8.789062,41.992188,41.992188,29.785156
5.296351,36.132812,37.597656,40.527344,28.808594
5.300258,4.882812,34.667969,41.015625,19.042969
5.304164,32.714844,27.832031,36.621094,23.437500
5.308070,49.804688,27.832031,38.085938,42.480469
5.311976,14.160156,32.714844,41.992188,41.015625
5.315883,38.085938,33.203125,37.109375,34.179688
5.319789,15.625000,30.761719,35.644531,21.972656
5.323695,34.667969,23.925781,35.644531,31.738281
5.327601,54.199219,24.414062,36.132812,51.269531
5.331508,12.695312,29.785156,36.621094,45.898438
5.335414,37.597656,27.343750,36.132812,41.015625
5.339320,19.042969,31.738281,40.039062,30.761719
5.343226,25.878906,32.226562,37.597656,35.644531
5.347133,58.593750,26.367188,36.132812,52.734375
5.351039,19.042969,31.738281,41.015625,45.898438
5.354945,33.691406,35.644531,41.015625,41.503906
5.358851,21.972656,34.179688,39.550781,31.250000
5.362758,20.507812,30.273438,36.621094,29.296875
5.392856,59.082031,28.808594,36.132812,44.921875
5.396762,17.578125,32.226562,40.039062,41.015625
5.400668,25.878906,35.156250,39.062500,34.667969
5.404575,26.367188,38.085938,40.527344,27.343750
5.408481,18.066406,36.621094,41.992188,24.414062
5.412387,63.964844,32.714844,39.062500,44.433594
5.416293,28.320312,37.109375,41.503906,42.968750
5.419948,26.367188,36.621094,41.992188,35.644531
5.420200,33.691406,38.085938,42.480469,34.667969
5.423854,41.015625,34.667969,41.015625,26.367188
5.424106,40.527344,36.621094,44.433594,31.738281
5.427760,18.554688,35.156250,40.039062,21.972656
5.428012,11.230469,33.691406,43.945312,26.367188
5.431667,63.476562,31.250000,34.179688,37.597656
5.431918,56.640625,28.808594,37.597656,42.968750
5.435573,46.875000,37.109375,35.644531,41.503906
5.435825,34.179688,35.156250,40.527344,49.804688
5.439479,25.878906,38.574219,37.109375,32.714844
5.443385,41.992188,31.250000,31.738281,25.390625
5.447292,17.578125,30.273438,30.273438,15.136719
5.451198,57.617188,29.296875,31.738281,31.738281
5.455104,51.757812,29.785156,35.156250,42.480469
5.459010,24.414062,31.738281,38.085938,33.203125
5.462917,46.875000,37.109375,37.597656,26.855469
5.466823,15.625000,36.621094,37.597656,15.625000
5.470729,46.386719,22.460938,36.132812,27.343750
5.474635,54.199219,27.343750,37.597656,43.457031
5.478542,19.531250,40.039062,39.062500,34.667969
5.482448,42.968750,42.480469,36.132812,32.714844
5.486354,18.066406,45.410156,36.132812,22.460938
5.490260,43.945312,35.644531,34.179688,28.320312
5.494167,60.546875,26.855469,34.179688,46.386719
5.498073,22.460938,34.179688,39.550781,39.550781
5.501979,48.339844,37.109375,39.550781,35.644531
5.505885,25.390625,38.085938,38.085938,22.949219
5.509792,41.015625,35.644531,33.203125,24.414062
5.538592,69.335938,33.691406,30.761719,46.875000
5.542498,24.414062,37.109375,36.132812,40.039062
5.546404,38.085938,34.667969,35.644531,32.226562
5.550311,16.113281,31.738281,36.621094,25.878906
5.554217,16.113281,28.808594,36.621094,26.855469
5.558123,59.570312,27.343750,35.156250,46.386719
5.559705,26.855469,31.250000,36.132812,28.320312
5.562029,22.460938,30.273438,38.574219,42.480469
5.563611,31.250000,27.832031,34.667969,19.042969
5.565936,33.691406,31.250000,37.597656,33.203125
5.567518,9.277344,30.761719,35.644531,17.089844
5.569842,23.925781,31.738281,37.109375,24.414062
5.571424,53.710938,28.808594,32.226562,37.109375
5.573748,11.230469,28.320312,33.691406,19.531250
5.575330,22.460938,31.250000,34.179688,40.527344
5.577654,61.523438,23.925781,30.273438,38.574219
5.579236,18.554688,34.179688,35.644531,31.250000
5.581561,25.390625,29.785156,36.621094,40.039062
5.583143,33.203125,34.667969,37.597656,26.855469
5.587049,9.277344,34.667969,38.085938,18.554688
5.590955,55.175781,28.320312,33.691406,36.132812
5.594861,37.109375,32.226562,39.062500,45.898438
5.598768,20.996094,36.132812,41.015625,33.203125
5.602674,40.039062,36.132812,36.621094,27.343750
5.631978,17.089844,36.621094,36.621094,19.531250
5.635884,61.523438,32.714844,34.179688,35.156250
5.639790,50.781250,36.621094,34.179688,47.363281
5.643697,26.367188,40.527344,38.085938,35.644531
5.647603,51.269531,38.574219,37.109375,29.296875
5.651509,18.554688,34.667969,35.644531,18.066406
5.653542,54.687500,29.296875,35.156250,49.804688
5.655415,52.734375,27.832031,33.691406,29.296875
5.657449,10.742188,29.785156,37.597656,37.597656
5.659322,56.152344,32.714844,35.156250,43.457031
5.661355,31.738281,22.460938,35.156250,28.808594
5.663228,22.460938,38.574219,38.574219,36.132812
5.665261,11.718750,23.437500,34.667969,17.089844
5.667134,51.269531,35.644531,39.062500,33.691406
5.669167,27.343750,28.808594,32.226562,20.507812
5.671040,19.531250,34.667969,39.062500,22.949219
5.673074,52.734375,32.226562,32.714844,39.550781
5.674947,39.550781,30.761719,35.156250,32.714844
5.676980,7.812500,39.550781,36.621094,36.132812
5.680886,25.390625,39.550781,34.667969,24.414062
5.684792,8.789062,36.132812,34.179688,10.742188
5.688699,13.183594,34.179688,32.226562,12.207031
5.692605,51.269531,32.226562,30.761719,31.738281
5.696511,12.695312,34.667969,37.109375,29.785156
5.726049,20.996094,32.714844,35.156250,20.996094
5.729955,3.417969,31.250000,33.203125,10.253906
5.733862,-0.976562,26.855469,34.667969,11.230469
5.737768,49.804688,19.531250,34.179688,34.667969
5.741674,16.601562,28.320312,39.062500,36.621094
5.745580,21.484375,34.667969,40.039062,25.390625
5.747774,20.507812,34.179688,48.828125,27.343750
5.749487,24.414062,32.226562,41.503906,20.019531
5.751680,64.453125,34.667969,44.433594,41.015625
5.753393,14.160156,30.761719,40.527344,18.554688
5.755586,34.179688,33.691406,44.433594,44.433594
5.757299,62.500000,29.785156,36.132812,36.621094
5.759492,16.113281,30.761719,43.945312,30.761719
5.761205,31.738281,39.062500,41.015625,42.480469
5.763399,31.250000,28.808594,39.550781,21.972656
5.765112,26.367188,40.527344,41.992188,34.667969
5.767305,4.882812,27.343750,39.062500,13.671875
5.769018,37.109375,30.761719,43.945312,30.761719
5.771211,49.316406,21.484375,35.156250,25.390625
5.775117,39.062500,25.878906,35.156250,36.132812
5.779024,11.230469,29.785156,37.597656,27.343750
5.782930,33.203125,30.761719,36.621094,24.902344
5.786836,7.812500,32.714844,36.132812,16.113281
5.790742,43.457031,26.367188,31.738281,24.414062
5.820235,42.968750,28.320312,34.179688,38.085938
5.824141,12.695312,32.226562,35.156250,29.296875
5.828047,36.621094,30.273438,32.226562,23.925781
5.831953,13.671875,31.250000,34.667969,12.695312
5.835860,41.015625,27.832031,32.226562,18.554688
5.839766,42.480469,29.296875,32.226562,35.644531
5.843672,7.812500,33.203125,34.667969,25.878906
5.844365,45.410156,33.691406,38.085938,27.343750
5.847578,37.597656,32.226562,32.714844,19.042969
5.848272,23.925781,30.761719,36.621094,17.578125
5.851485,8.300781,31.738281,33.691406,11.230469
5.852178,28.808594,25.390625,32.714844,17.089844
5.855391,24.414062,26.367188,31.738281,15.625000
5.856084,67.871094,25.878906,32.714844,38.574219
5.859297,53.710938,28.808594,31.738281,37.109375
5.859990,24.902344,40.039062,39.062500,35.644531
5.863203,18.066406,37.109375,38.085938,32.226562
5.863897,37.597656,45.410156,40.039062,27.343750
5.867803,26.855469,41.992188,37.109375,17.089844
5.871709,26.367188,36.621094,33.691406,16.601562
5.875615,63.476562,35.156250,34.179688,34.667969
5.879522,14.160156,42.968750,36.621094,28.808594
5.883428,29.785156,39.550781,34.667969,15.625000
5.887334,29.785156,37.597656,34.179688,9.277344
5.918667,16.113281,37.597656,33.691406,9.277344
5.922573,65.917969,34.667969,31.738281,30.761719
5.926479,32.714844,39.062500,34.179688,33.203125
5.930385,30.273438,41.015625,35.156250,22.949219
5.934292,40.039062,41.015625,36.621094,17.089844
5.938198,22.460938,41.503906,35.644531,11.718750
5.940274,46.386719,36.132812,37.597656,41.503906
5.942104,65.917969,34.179688,31.250000,28.808594
5.944180,28.320312,38.574219,40.039062,28.808594
5.946010,40.527344,35.644531,37.597656,32.714844
5.948087,49.316406,38.574219,40.039062,22.949219
5.949917,26.367188,42.480469,40.527344,24.902344
5.951993,20.019531,35.156250,41.503906,18.554688
5.953823,41.992188,36.621094,38.574219,21.972656
5.955899,59.082031,27.343750,36.621094,32.226562
5.957729,20.507812,30.273438,37.597656,14.648438
5.959805,52.246094,30.273438,37.109375,41.503906
5.961635,62.500000,31.250000,33.691406,31.738281
5.963712,21.484375,34.179688,40.527344,29.296875
5.967618,45.410156,37.597656,41.015625,26.367188
5.971524,16.113281,41.015625,40.527344,17.578125
5.975430,48.339844,35.644531,35.156250,23.925781
5.979337,50.292969,34.667969,35.644531,38.085938
5.983243,9.765625,38.574219,38.574219,27.343750
6.013416,35.156250,37.109375,36.132812,20.019531
6.017323,14.160156,34.667969,37.597656,13.183594
6.021229,40.039062,33.691406,35.156250,23.925781
6.025135,62.500000,30.761719,35.156250,44.433594
6.029041,24.414062,34.179688,39.550781,36.621094
6.032948,47.851562,37.109375,37.597656,30.273438
6.034419,29.296875,26.855469,40.527344,24.414062
6.036854,23.437500,37.109375,38.085938,20.507812
6.038326,72.265625,26.855469,37.109375,43.945312
6.040760,25.878906,41.503906,37.597656,26.367188
6.042232,24.414062,34.667969,39.550781,42.480469
6.044666,59.570312,38.085938,37.109375,43.457031
6.046138,32.226562,41.015625,40.527344,37.109375
6.048573,24.414062,38.574219,41.015625,35.644531
6.050044,27.343750,41.015625,40.039062,28.808594
6.052479,40.527344,37.109375,42.480469,35.156250
6.053951,18.554688,37.109375,38.085938,24.902344
6.056385,22.949219,30.761719,44.433594,26.855469
6.057857,69.335938,33.203125,37.109375,42.480469
6.061307,31.250000,30.761719,37.597656,46.875000
6.061763,29.296875,36.621094,40.527344,43.457031
6.065213,21.484375,32.714844,38.085938,35.644531
6.065669,28.320312,31.250000,38.574219,35.156250
6.069119,31.738281,30.761719,40.527344,31.250000
6.069576,34.667969,29.296875,38.574219,30.273438
6.073026,12.207031,30.273438,40.527344,21.972656
6.073482,14.648438,31.250000,37.109375,26.855469
6.076932,59.570312,24.902344,35.156250,35.156250
6.077388,57.617188,27.832031,35.156250,44.921875
6.080838,40.527344,28.320312,39.550781,44.921875
6.084744,18.554688,34.667969,43.457031,36.621094
6.088651,44.921875,34.667969,41.992188,32.714844
6.092557,25.878906,34.179688,42.480469,24.414062
6.096463,64.453125,30.761719,39.062500,37.597656
6.100369,48.828125,30.273438,41.503906,46.875000
6.104276,14.648438,34.179688,43.945312,36.132812
6.108182,40.039062,35.644531,39.062500,27.343750
6.112088,9.277344,38.085938,40.039062,15.625000
6.115994,42.480469,34.667969,35.644531,23.925781
6.119901,48.339844,34.667969,33.203125,36.132812
6.123807,6.835938,36.132812,35.644531,26.367188
6.127713,34.179688,29.296875,34.179688,20.019531
6.131619,7.324219,31.250000,35.644531,8.789062
6.135526,30.761719,29.785156,30.273438,10.253906
6.139432,50.781250,31.250000,31.738281,30.273438
6.143338,10.253906,40.527344,38.574219,31.250000
6.147244,40.039062,39.062500,38.085938,27.343750
6.151151,18.066406,35.156250,40.039062,16.113281
6.181034,31.738281,30.273438,39.062500,19.042969
6.184940,67.871094,31.250000,38.085938,41.015625
6.188846,27.343750,37.597656,40.527344,34.667969
6.192752,41.015625,35.156250,41.503906,29.785156
6.196659,19.531250,34.667969,41.503906,20.507812
6.200565,18.554688,31.738281,37.109375,18.066406
6.204471,62.011719,28.320312,36.132812,37.597656
6.208377,23.925781,36.132812,40.527344,33.691406
6.212284,33.203125,33.691406,41.503906,24.902344
6.216190,23.925781,27.832031,41.992188,20.019531
6.220096,17.578125,21.972656,40.039062,15.136719
6.224002,60.546875,19.042969,34.667969,37.109375
6.255106,19.042969,33.203125,39.062500,44.433594
6.259012,19.042969,39.062500,44.433594,35.644531
6.262918,26.367188,32.226562,45.898438,27.343750
6.266824,14.648438,29.296875,45.410156,19.531250
6.270731,55.664062,26.855469,41.015625,35.156250
6.274637,23.437500,29.785156,41.015625,38.574219
6.277290,41.015625,33.691406,39.062500,23.437500
6.278543,21.972656,32.714844,42.480469,29.296875
6.281196,13.671875,37.109375,38.085938,13.671875
6.282449,36.621094,35.156250,41.503906,24.902344
6.285103,47.363281,34.179688,34.179688,24.902344
6.286356,10.253906,35.156250,37.597656,16.113281
6.289009,39.062500,33.691406,36.621094,33.691406
6.290262,52.246094,29.785156,33.691406,31.738281
6.292915,14.648438,38.085938,40.527344,26.855469
6.294168,34.667969,30.273438,35.644531,39.550781
6.296821,29.296875,36.621094,36.621094,19.531250
6.298074,20.019531,34.179688,39.062500,28.320312
6.300728,0.976562,35.644531,33.203125,3.417969
6.303138,28.808594,28.320312,32.226562,22.949219
6.304634,38.574219,31.250000,29.296875,14.160156
6.307045,44.921875,29.785156,30.761719,38.574219
6.308540,38.085938,34.179688,33.691406,29.785156
6.310951,14.160156,36.621094,35.156250,31.738281
6.312446,3.417969,36.621094,35.644531,20.507812
6.314857,41.503906,34.667969,37.109375,29.785156
6.316353,28.320312,37.109375,32.226562,17.578125
6.318763,14.160156,31.250000,41.015625,20.996094
6.320259,1.464844,36.132812,35.156250,13.183594
6.322670,30.761719,27.343750,40.527344,24.902344
6.326576,58.593750,25.878906,41.015625,43.945312
6.330482,15.625000,29.785156,44.433594,39.550781
6.334388,34.667969,29.785156,42.968750,32.226562
6.338295,18.554688,29.785156,41.992188,22.949219
6.342201,27.832031,28.808594,41.015625,27.343750
6.346107,67.871094,32.226562,40.527344,50.292969
6.350013,23.925781,35.156250,42.480469,45.898438
6.353920,36.132812,27.343750,42.480469,33.203125
6.357826,22.949219,28.320312,42.968750,21.972656
6.361732,15.136719,27.832031,41.015625,20.507812
6.365638,62.011719,24.414062,39.550781,40.527344
6.369545,27.343750,34.179688,44.433594,42.480469
6.373451,32.714844,34.667969,44.433594,33.203125
6.377357,33.203125,31.250000,43.945312,22.460938
6.381263,25.878906,26.367188,41.992188,17.089844
6.385170,71.777344,19.042969,38.085938,38.574219
6.389076,33.691406,26.367188,40.527344,43.457031
6.392982,28.808594,38.085938,37.597656,31.738281
6.422887,39.062500,43.945312,31.250000,18.554688
6.426793,19.531250,41.015625,28.808594,6.835938
6.430699,62.988281,35.156250,27.343750,25.878906
6.434605,37.109375,41.015625,29.296875,33.203125
6.438512,23.437500,43.945312,28.808594,17.578125
6.442418,33.691406,39.062500,26.367188,11.718750
6.444988,61.035156,28.808594,33.203125,37.109375
6.446324,8.300781,33.691406,24.414062,5.859375
6.448895,50.781250,27.832031,34.179688,49.804688
6.450230,52.246094,28.808594,24.414062,21.484375
6.452801,19.042969,30.761719,36.621094,41.503906
6.454137,39.550781,32.226562,29.296875,30.761719
6.456707,46.875000,27.832031,34.667969,35.644531
6.458043,19.531250,31.738281,33.203125,23.925781
6.460613,16.601562,28.320312,36.132812,25.390625
6.461949,43.457031,26.855469,33.691406,23.925781
6.464520,48.339844,27.343750,36.132812,34.667969
6.465855,21.972656,31.738281,35.644531,21.972656
6.468426,54.687500,27.832031,36.621094,50.292969
6.472332,15.625000,31.738281,40.527344,41.015625
6.476238,46.875000,31.738281,41.015625,34.667969
6.480145,17.578125,33.203125,41.992188,27.343750
6.484051,29.785156,26.855469,36.621094,26.367188
6.487957,53.222656,26.855469,34.667969,39.550781
6.516906,15.625000,30.273438,39.550781,35.644531
6.520813,37.109375,30.761719,35.644531,30.273438
6.524719,13.671875,30.273438,33.691406,17.578125
6.528625,22.460938,22.949219,31.738281,19.531250
6.532531,55.664062,23.437500,34.179688,39.062500
6.536438,16.601562,35.156250,38.085938,32.226562
6.538078,31.738281,36.132812,36.621094,18.066406
6.540344,37.597656,36.621094,36.132812,24.414062
6.541984,23.925781,34.179688,35.644531,21.972656
6.544250,24.414062,29.785156,36.132812,12.695312
6.545890,75.195312,31.738281,31.738281,40.039062
6.548156,24.414062,33.203125,31.738281,13.183594
6.549797,39.550781,38.574219,34.667969,41.503906
6.552063,64.941406,33.203125,29.785156,33.691406
6.553703,45.410156,38.574219,37.109375,44.921875
6.555969,21.972656,36.621094,34.179688,31.250000
6.557609,54.687500,39.550781,38.574219,44.433594
6.559875,33.203125,34.667969,35.156250,21.484375
6.561515,20.507812,39.550781,32.714844,17.089844
6.565422,61.523438,35.156250,28.808594,24.414062
6.569328,31.250000,37.109375,36.621094,32.714844
6.573234,20.996094,34.667969,37.597656,21.972656
6.577140,36.132812,33.691406,36.132812,13.671875
6.581047,4.882812,32.714844,35.644531,4.882812
6.611743,48.339844,32.714844,32.226562,20.996094
6.615649,19.531250,38.085938,38.085938,23.925781
6.619555,-13.183594,37.597656,39.550781,8.300781
6.623462,10.253906,37.597656,39.062500,4.394531
6.627368,-8.300781,37.109375,40.039062,0.000000
6.631274,33.691406,32.226562,37.597656,17.089844
6.635180,31.738281,35.644531,42.480469,32.714844
6.637429,14.648438,38.085938,43.945312,24.414062
6.639087,5.859375,38.085938,43.945312,22.949219
6.641336,41.015625,36.621094,41.015625,20.507812
6.642993,29.785156,34.179688,41.503906,15.136719
6.645242,18.554688,36.621094,40.527344,9.277344
6.646899,0.488281,33.203125,41.015625,3.417969
6.649148,41.992188,32.714844,35.156250,14.648438
6.650805,33.203125,27.832031,36.621094,13.183594
6.653054,58.105469,32.714844,32.226562,32.714844
6.654712,45.410156,32.226562,39.550781,30.761719
6.656961,12.695312,38.085938,36.132812,26.855469
6.660867,36.621094,37.109375,34.179688,21.484375
6.664773,19.042969,35.644531,34.179688,14.648438
6.668679,27.343750,32.714844,33.203125,18.554688
6.672586,64.453125,28.808594,28.808594,34.179688
6.676492,28.320312,32.226562,30.273438,29.785156
6.680398,42.480469,32.714844,33.203125,27.832031
6.684304,26.367188,33.691406,32.714844,20.019531
6.688211,27.343750,30.273438,27.832031,18.554688
6.692117,62.500000,26.367188,25.878906,36.621094
6.696023,22.949219,36.621094,31.738281,34.179688
6.699929,34.179688,39.062500,32.226562,25.878906
6.703836,21.484375,37.597656,32.714844,15.136719
6.707742,12.695312,35.156250,31.738281,11.230469
6.711648,57.128906,30.761719,30.761719,34.667969
6.715554,15.136719,33.203125,36.621094,39.550781
6.719461,19.531250,31.738281,34.179688,25.878906
6.723367,20.019531,27.343750,31.738281,13.671875
6.727273,1.953125,24.902344,33.691406,10.742188
6.757293,47.363281,21.484375,29.296875,31.250000
6.761199,14.160156,28.320312,31.738281,35.156250
6.765105,11.230469,34.179688,36.132812,25.390625
6.769012,25.878906,32.714844,37.109375,16.113281
6.772918,-2.929688,32.226562,35.644531,3.906250
6.776824,41.503906,27.343750,30.761719,20.996094
6.779427,0.488281,42.480469,31.250000,17.089844
6.780730,24.902344,29.785156,34.179688,27.832031
6.783333,28.808594,32.714844,28.808594,15.136719
6.784637,5.859375,30.273438,38.085938,17.578125
6.787239,9.765625,39.550781,29.785156,8.300781
6.788543,28.320312,18.066406,37.109375,14.648438
6.791146,42.968750,33.203125,28.320312,20.507812
6.792449,9.277344,13.183594,35.644531,4.394531
6.795052,47.363281,29.785156,28.320312,35.156250
6.796355,54.687500,19.042969,30.761719,19.042969
6.798958,19.042969,30.273438,34.667969,28.808594
6.800262,38.574219,37.109375,29.785156,29.785156
6.802864,43.457031,29.296875,33.203125,25.878906
6.806771,11.230469,30.761719,33.203125,10.742188
6.810677,40.039062,28.808594,29.785156,17.578125
6.814583,60.546875,33.203125,27.832031,38.085938
6.818489,16.601562,34.667969,33.691406,28.808594
6.822396,42.968750,32.714844,30.761719,21.484375
6.852241,24.902344,34.667969,31.250000,12.695312
6.856148,32.226562,27.343750,30.761719,20.507812
6.860054,58.593750,28.320312,32.226562,42.480469
6.863960,21.972656,36.621094,38.085938,37.109375
6.867866,41.503906,32.226562,35.644531,29.785156
6.871773,21.972656,28.808594,37.597656,17.578125
6.873621,59.570312,28.808594,32.226562,33.203125
6.875679,23.437500,26.367188,38.085938,17.089844
6.877527,20.019531,31.738281,35.156250,33.203125
6.879585,59.082031,27.343750,35.156250,36.621094
6.881433,30.761719,28.808594,38.574219,28.320312
6.883491,20.996094,32.714844,38.085938,32.714844
6.885340,31.250000,26.855469,39.062500,20.996094
6.887398,32.226562,31.250000,38.085938,26.855469
6.889246,12.207031,28.320312,36.621094,12.695312
6.891304,19.042969,30.761719,37.109375,21.972656
6.893152,57.128906,29.296875,32.714844,29.296875
6.895210,13.671875,30.273438,34.667969,17.578125
6.897058,24.902344,33.691406,37.597656,33.691406
6.900965,27.343750,33.691406,40.527344,25.878906
6.904871,39.550781,31.738281,39.550781,18.066406
6.908777,19.531250,31.738281,37.109375,13.671875
6.912683,67.382812,28.320312,34.179688,33.203125
6.916590,44.921875,33.691406,39.550781,40.527344
6.946664,26.855469,39.550781,40.527344,30.761719
6.950570,41.015625,38.574219,38.085938,22.460938
6.954476,19.531250,38.574219,40.039062,11.718750
6.958383,60.058594,35.644531,36.621094,24.902344
6.962289,37.597656,36.621094,37.597656,35.644531
6.966195,9.277344,36.621094,41.015625,27.832031
6.967844,9.765625,41.015625,31.738281,1.464844
6.970101,34.179688,31.738281,39.062500,19.042969
6.971750,36.132812,38.574219,27.343750,14.160156
6.974008,7.812500,29.785156,40.527344,7.324219
6.975656,43.945312,37.109375,27.343750,32.226562
6.977914,41.015625,22.949219,36.132812,18.554688
6.979562,6.835938,38.574219,33.691406,20.996094
6.981820,34.179688,24.902344,33.691406,26.367188
6.983469,27.343750,34.667969,33.691406,14.648438
6.985726,1.953125,36.621094,34.179688,15.625000
6.987375,1.953125,33.691406,33.203125,5.371094
6.989633,34.179688,40.039062,30.761719,11.718750
6.991281,25.390625,30.761719,30.273438,11.718750
6.995187,50.292969,29.785156,31.250000,33.203125
6.999094,10.742188,35.644531,36.132812,33.203125
7.003000,37.597656,36.132812,35.156250,30.761719
7.006906,22.949219,34.179688,34.667969,20.507812
7.010812,23.437500,29.785156,34.667969,23.925781
7.042846,55.175781,21.972656,35.644531,44.921875
7.046752,19.042969,22.949219,38.085938,40.527344
7.050659,36.621094,27.832031,36.621094,33.203125
7.054565,21.484375,30.273438,35.644531,24.902344
7.058471,17.578125,25.878906,34.667969,26.367188
7.062377,61.523438,21.484375,33.203125,44.921875
7.065024,23.925781,34.179688,39.550781,33.691406
7.066284,25.390625,29.785156,38.085938,43.945312
7.068930,33.203125,32.714844,40.527344,26.367188
7.070190,34.179688,36.132812,37.109375,35.156250
7.072837,7.324219,30.273438,37.597656,21.484375
7.074096,25.878906,37.597656,37.597656,24.902344
7.076743,51.757812,26.367188,35.644531,37.597656
7.078002,13.671875,32.714844,38.574219,21.972656
7.080649,26.367188,30.761719,41.015625,44.921875
7.081909,60.546875,30.761719,32.226562,39.062500
7.084555,15.625000,34.179688,40.527344,36.132812
7.085815,23.437500,33.691406,34.667969,41.992188
7.088462,37.109375,33.691406,38.085938,27.343750
7.092368,8.789062,33.203125,35.644531,17.578125
7.096274,55.175781,29.785156,33.691406,33.203125
7.100180,46.875000,33.691406,39.062500,44.921875
7.104087,19.042969,38.574219,41.503906,34.179688
7.107993,42.480469,36.621094,39.062500,27.832031
7.137208,19.042969,35.644531,40.039062,22.949219
7.141114,52.734375,30.273438,36.132812,33.203125
7.145021,46.875000,31.738281,37.109375,45.898438
7.148927,20.996094,36.621094,42.480469,39.062500
7.152833,48.339844,34.667969,40.039062,34.667969
7.156739,17.578125,33.691406,38.574219,29.296875
7.159142,60.546875,36.132812,37.597656,53.710938
7.160646,50.781250,25.390625,34.667969,35.644531
7.163048,20.019531,41.503906,40.039062,43.457031
7.164552,55.175781,28.320312,36.621094,49.804688
7.166955,48.339844,40.039062,41.992188,40.527344
7.168458,17.578125,38.574219,42.480469,39.550781
7.170861,25.878906,39.062500,40.527344,31.250000
7.172364,48.828125,41.992188,41.015625,33.203125
7.174767,28.808594,31.250000,35.156250,31.250000
7.176271,22.460938,44.433594,40.039062,23.925781
7.178673,68.359375,29.785156,35.156250,48.339844
7.180177,40.039062,35.644531,37.597656,32.226562
7.182580,26.855469,35.156250,38.085938,40.527344
7.186486,40.039062,33.691406,36.132812,32.714844
7.190392,27.343750,34.179688,32.714844,24.902344
7.194298,21.484375,29.785156,26.367188,23.925781
7.198205,61.523438,29.296875,24.414062,46.386719
7.202111,24.902344,36.621094,28.808594,48.828125
7.232216,38.574219,36.621094,29.785156,41.015625
7.236122,33.203125,36.132812,30.761719,33.203125
7.240029,20.996094,33.691406,31.738281,28.808594
7.243935,67.382812,29.296875,30.273438,47.851562
7.247841,28.808594,34.179688,33.203125,49.804688
7.251747,24.414062,35.156250,31.738281,41.503906
7.253940,12.695312,35.156250,38.085938,26.855469
7.255654,27.832031,34.179688,31.250000,39.062500
7.257846,56.152344,33.203125,33.691406,42.968750
7.259560,13.671875,33.691406,31.738281,35.644531
7.261752,35.644531,37.597656,34.667969,50.292969
7.263466,63.964844,27.832031,30.273438,50.292969
7.265659,20.996094,40.527344,38.574219,43.457031
7.267372,32.226562,27.832031,35.156250,54.687500
7.269565,38.085938,36.132812,40.039062,41.015625
7.271279,20.019531,30.273438,35.156250,41.992188
7.273471,11.718750,34.667969,39.550781,31.738281
7.275185,31.738281,32.226562,36.621094,34.179688
7.277377,46.875000,30.761719,33.203125,42.480469
7.281284,38.085938,33.691406,33.691406,51.269531
7.285190,14.160156,39.062500,36.621094,42.480469
7.289096,41.015625,36.621094,35.156250,38.574219
7.293002,14.160156,34.179688,38.085938,27.832031
7.296909,41.015625,28.808594,36.132812,37.597656
7.326924,47.363281,25.390625,37.597656,54.687500
7.330830,13.183594,27.343750,41.503906,46.386719
7.334737,38.574219,28.808594,41.503906,41.015625
7.338643,13.183594,31.738281,42.480469,28.320312
7.342549,37.597656,31.250000,37.597656,35.156250
7.346455,57.128906,24.902344,37.109375,50.781250
7.348592,38.085938,34.179688,36.621094,35.644531
7.350362,16.113281,21.484375,43.457031,41.503906
7.352498,19.042969,34.179688,39.062500,27.343750
7.354268,39.550781,25.390625,45.410156,37.597656
7.356404,20.996094,29.785156,39.062500,26.367188
7.358174,19.531250,35.156250,44.921875,26.855469
7.360310,62.988281,28.808594,39.550781,46.386719
7.362080,27.343750,34.667969,40.039062,26.855469
7.364217,20.996094,32.714844,42.480469,42.968750
7.365987,57.128906,30.761719,37.597656,46.875000
7.368123,25.390625,32.226562,41.015625,34.179688
7.369893,21.972656,34.667969,38.085938,41.992188
7.372029,17.089844,35.644531,40.527344,25.390625
7.375935,12.695312,28.808594,37.109375,21.484375
7.379842,60.058594,24.902344,35.644531,39.062500
7.383748,20.019531,30.273438,38.574219,35.644531
7.387654,23.437500,27.832031,35.644531,22.949219
7.391560,26.855469,30.761719,33.203125,15.136719
7.423241,5.859375,29.785156,31.738281,11.230469
7.427147,50.781250,25.390625,31.738281,31.738281
7.431054,23.925781,30.273438,36.132812,33.203125
7.434960,18.066406,33.203125,35.644531,20.996094
7.438866,24.902344,34.667969,38.085938,16.113281
7.442772,1.464844,31.250000,39.062500,4.394531
7.445057,35.156250,36.132812,30.273438,31.250000
7.446679,44.921875,24.414062,29.296875,14.648438
7.448963,12.695312,36.132812,30.273438,19.531250
7.450585,25.390625,28.320312,30.273438,24.902344
7.452869,39.550781,35.156250,31.738281,16.601562
7.454491,11.718750,29.785156,34.179688,15.625000
7.456775,10.253906,37.109375,32.226562,8.300781
7.458397,28.320312,31.738281,33.203125,10.253906
7.460682,46.386719,32.226562,29.296875,19.531250
7.462304,12.207031,32.226562,32.714844,2.929688
7.464588,53.222656,28.808594,36.132812,37.109375
7.466210,54.687500,29.785156,29.785156,19.042969
7.468494,19.531250,31.738281,38.574219,28.808594
7.472400,45.898438,36.621094,35.644531,22.949219
7.476307,24.414062,38.574219,38.574219,9.765625
7.480213,50.292969,36.132812,35.156250,17.089844
7.484119,61.523438,35.644531,35.644531,37.597656
7.488025,20.507812,38.085938,37.109375,27.832031
7.517907,48.339844,36.132812,33.203125,19.531250
7.521813,25.878906,36.132812,33.203125,9.765625
7.525719,37.109375,31.738281,32.714844,16.113281
7.529626,63.964844,26.367188,34.179688,34.179688
7.533532,20.019531,30.761719,36.621094,29.785156
7.537438,40.039062,37.109375,39.062500,27.832031
7.539419,20.019531,35.156250,40.527344,12.207031
7.541344,26.855469,41.992188,43.945312,20.507812
7.543325,56.640625,29.296875,37.109375,28.320312
7.545251,29.296875,40.039062,42.480469,21.972656
7.547231,13.671875,34.667969,39.062500,27.832031
7.549157,60.546875,38.085938,40.039062,40.039062
7.551138,18.066406,36.132812,36.132812,20.507812
7.553063,22.949219,41.503906,42.480469,35.156250
7.555044,22.949219,35.644531,35.156250,14.648438
7.556969,35.156250,40.039062,41.015625,28.808594
7.558950,17.089844,27.832031,36.132812,15.625000
7.560876,23.437500,39.550781,41.503906,19.531250
7.562856,61.035156,27.343750,32.714844,35.644531
7.566309,30.273438,32.714844,31.250000,37.597656
7.566763,25.390625,34.667969,35.644531,38.085938
7.570215,17.089844,35.156250,34.179688,24.414062
7.570669,24.414062,38.085938,37.109375,27.832031
7.574122,37.597656,35.644531,35.644531,17.578125
7.574575,30.761719,43.457031,34.667969,20.019531
7.578028,9.765625,36.132812,34.667969,12.695312
7.578481,4.882812,37.597656,33.203125,13.671875
7.581934,42.480469,28.320312,30.761719,24.902344
7.582388,51.757812,29.785156,28.320312,30.761719
7.585840,30.761719,29.296875,35.644531,35.156250
7.589747,10.253906,33.691406,37.109375,26.855469
7.593653,29.785156,28.808594,33.203125,18.066406
7.597559,5.371094,26.367188,31.250000,10.253906
7.601465,43.945312,24.902344,28.808594,27.343750
7.605372,45.898438,29.785156,35.156250,45.898438
7.609278,17.578125,33.203125,38.085938,38.085938
7.613184,38.574219,30.761719,37.109375,31.250000
7.617090,7.812500,29.785156,38.085938,19.531250
7.620997,38.574219,27.343750,36.132812,27.343750
7.624903,53.710938,34.667969,36.132812,43.945312
7.628809,19.531250,36.621094,36.132812,36.621094
7.632715,42.480469,30.273438,36.132812,32.226562
7.636622,20.507812,35.644531,34.667969,22.949219
7.640528,41.992188,34.667969,29.785156,27.832031
7.644434,63.476562,33.203125,32.714844,46.875000
7.648340,20.019531,37.597656,38.574219,40.039062
7.652247,41.015625,33.203125,38.574219,29.785156
7.656153,18.554688,27.832031,37.597656,15.136719
7.686876,28.320312,18.066406,35.644531,14.160156
7.690782,63.476562,11.230469,33.203125,35.156250
7.694688,11.718750,13.671875,34.667969,29.785156
7.698594,25.878906,20.019531,35.644531,22.949219
7.702501,13.671875,31.738281,36.132812,20.996094
7.706407,10.253906,32.226562,34.667969,19.042969
7.710313,59.082031,27.832031,31.738281,34.667969
7.712402,26.367188,33.203125,33.203125,33.691406
7.714219,24.414062,31.738281,32.714844,33.691406
7.716308,28.808594,37.597656,37.109375,27.832031
7.718126,31.738281,32.226562,31.738281,29.296875
7.720215,38.085938,33.691406,37.597656,21.484375
7.722032,31.738281,32.226562,34.179688,22.949219
7.724121,18.554688,29.785156,35.644531,15.136719
7.725938,22.460938,30.761719,35.644531,17.578125
7.728027,62.500000,31.250000,32.226562,33.691406
7.729844,62.011719,27.343750,30.273438,32.226562
7.731933,38.085938,35.644531,35.644531,39.550781
7.735840,27.832031,35.156250,39.062500,28.320312
7.739746,43.457031,36.621094,38.574219,20.996094
7.743652,14.648438,35.156250,33.203125,12.695312
7.747558,53.222656,29.296875,28.808594,27.343750
7.751465,45.898438,32.714844,34.667969,37.597656
7.755371,25.878906,34.667969,37.109375,29.296875
7.759277,43.945312,32.714844,36.132812,22.949219
7.763183,19.042969,31.250000,37.109375,12.695312
7.767090,50.292969,26.855469,32.714844,26.367188
7.770996,40.039062,27.832031,35.156250,37.597656
7.774902,10.742188,31.250000,38.085938,28.808594
7.778808,37.597656,30.761719,35.644531,24.902344
7.782715,11.718750,29.785156,34.667969,12.207031
7.786621,42.480469,26.855469,28.320312,21.484375
7.790527,50.781250,27.343750,27.832031,40.039062
7.794433,14.648438,32.714844,31.738281,29.785156
7.798340,45.898438,26.855469,29.785156,22.460938
7.802246,14.648438,19.042969,28.320312,13.183594
7.832212,31.738281,19.531250,25.390625,15.625000
7.836118,55.175781,27.832031,29.296875,31.250000
7.840024,11.718750,35.644531,32.226562,26.367188
7.843930,32.714844,29.785156,30.273438,19.042969
7.847837,12.695312,35.644531,30.761719,5.859375
7.851743,24.902344,35.644531,29.785156,9.277344
7.853350,22.460938,22.460938,37.597656,38.085938
7.855649,57.617188,29.785156,31.738281,33.203125
7.857256,29.296875,27.832031,37.109375,30.761719
7.859555,17.089844,31.738281,36.132812,30.761719
7.861162,24.902344,37.109375,37.109375,21.484375
7.863462,34.179688,29.785156,37.597656,25.390625
7.865068,20.019531,39.062500,37.109375,18.066406
7.867368,24.414062,30.273438,39.062500,16.113281
7.868975,66.894531,35.644531,36.132812,39.062500
7.871274,25.878906,25.878906,34.179688,18.066406
7.872881,28.320312,40.039062,40.039062,40.527344
7.875180,64.941406,19.042969,32.226562,41.503906
7.876787,29.296875,40.527344,36.621094,29.785156
7.880693,27.832031,38.085938,34.667969,20.507812
7.884600,10.253906,36.621094,35.156250,13.671875
7.888506,60.058594,26.855469,31.250000,28.808594
7.892412,32.226562,25.878906,37.597656,35.644531
7.896318,28.320312,32.226562,43.457031,26.855469
7.928198,41.015625,34.667969,44.921875,18.554688
7.932104,14.648438,37.109375,42.480469,14.160156
7.936011,61.523438,31.738281,37.109375,30.761719
7.939917,41.992188,37.597656,38.085938,41.015625
7.943823,25.878906,44.921875,40.527344,31.738281
7.947729,49.804688,39.062500,39.062500,24.414062
7.949262,40.527344,26.855469,35.156250,18.554688
7.951636,18.066406,37.597656,38.085938,16.113281
7.953168,44.921875,29.296875,38.574219,36.621094
7.955542,48.339844,33.691406,33.203125,21.972656
7.957075,10.253906,32.714844,44.433594,33.203125
7.959448,38.085938,33.203125,32.226562,28.320312
7.960981,41.992188,31.250000,44.433594,31.250000
7.963354,10.742188,36.132812,34.179688,21.972656
7.964887,16.113281,30.273438,44.921875,19.531250
7.967261,33.203125,35.644531,33.203125,15.136719
7.968793,29.785156,25.390625,43.945312,27.343750
7.971167,5.371094,31.738281,34.179688,4.882812
7.972700,44.433594,25.878906,42.480469,45.898438
7.976606,10.253906,32.714844,42.968750,35.156250
7.980512,39.550781,31.738281,41.015625,27.343750
7.984418,14.648438,31.738281,39.062500,19.042969
7.988325,29.296875,30.273438,39.062500,27.343750
7.992231,61.035156,27.832031,37.109375,44.921875
8.022241,17.578125,24.902344,39.550781,37.597656
8.026147,34.667969,26.855469,42.968750,33.203125
8.030053,17.089844,34.667969,40.527344,24.414062
8.033960,23.925781,31.250000,38.574219,23.437500
8.037866,63.476562,25.390625,37.109375,42.968750
8.041772,16.113281,30.273438,36.621094,36.621094
8.043658,22.460938,36.621094,36.621094,17.578125
8.045678,27.343750,31.738281,35.644531,26.367188
8.047564,8.300781,31.738281,36.621094,14.648438
8.049585,22.949219,27.832031,36.132812,15.625000
8.051470,53.710938,27.832031,34.667969,34.667969
8.053491,15.136719,19.042969,33.203125,11.718750
8.055377,20.507812,34.179688,37.109375,37.109375
8.057397,58.105469,16.113281,31.250000,36.132812
8.059283,17.578125,32.714844,37.109375,24.902344
8.061303,20.996094,25.390625,34.667969,37.109375
8.063189,29.296875,27.832031,37.109375,20.996094
8.065210,21.972656,33.203125,35.156250,25.878906
8.067095,8.789062,27.343750,34.667969,14.648438
8.071002,59.082031,28.320312,32.714844,28.808594
8.074908,37.597656,35.644531,38.574219,41.503906
8.078814,20.996094,28.808594,39.062500,37.109375
8.082720,43.457031,29.785156,37.597656,31.738281
8.086627,20.996094,33.691406,37.109375,25.390625
8.116188,57.617188,27.832031,34.667969,40.527344
8.120095,42.480469,28.808594,37.597656,50.781250
8.124001,17.578125,29.296875,37.109375,37.597656
8.127907,43.945312,28.320312,38.085938,32.226562
8.131813,12.207031,26.367188,43.457031,24.414062
8.135720,45.410156,15.625000,41.015625,34.667969
8.137387,10.253906,35.644531,38.574219,32.714844
8.139626,51.269531,19.531250,41.503906,50.781250
8.141293,30.761719,34.179688,36.132812,22.460938
8.143532,18.066406,28.320312,45.898438,40.527344
8.145200,7.324219,32.226562,33.203125,12.207031
8.147438,41.503906,31.250000,42.968750,35.644531
8.149106,25.390625,30.761719,32.226562,20.019531
8.151345,10.253906,35.644531,40.039062,23.925781
8.153012,51.269531,29.296875,32.714844,38.574219
8.155251,34.667969,29.296875,34.179688,23.925781
8.156918,6.835938,33.691406,31.250000,30.761719
8.159157,52.246094,28.320312,33.203125,40.527344
8.160825,33.691406,34.179688,29.785156,26.367188
8.164731,15.136719,31.250000,33.691406,15.136719
8.168637,13.671875,29.785156,31.250000,10.742188
8.172543,55.175781,32.226562,30.761719,34.179688
8.176450,17.089844,35.156250,34.667969,36.132812
8.180356,28.808594,35.156250,35.156250,28.808594
8.209734,20.507812,35.644531,38.574219,23.925781
8.213641,16.601562,31.250000,36.132812,27.343750
8.217547,58.593750,27.343750,31.738281,41.992188
8.221453,23.925781,31.738281,35.156250,38.085938
8.225359,32.226562,31.250000,36.621094,31.250000
8.229266,30.273438,33.203125,37.597656,26.367188
8.231394,59.570312,29.785156,34.667969,45.898438
8.233172,22.460938,33.203125,37.109375,22.949219
8.235300,33.203125,30.273438,39.062500,49.804688
8.237078,70.312500,25.878906,35.644531,45.898438
8.239206,21.972656,29.785156,39.550781,40.039062
8.240984,37.597656,27.343750,40.039062,52.734375
8.243113,41.992188,31.738281,36.621094,35.644531
8.244891,35.156250,29.785156,42.480469,44.433594
8.247019,21.484375,33.203125,37.109375,22.460938
8.248797,44.433594,35.644531,43.457031,43.945312
8.250925,58.105469,27.832031,35.644531,31.250000
8.252703,20.507812,37.597656,41.015625,35.644531
8.254831,40.527344,30.761719,41.503906,42.968750
8.258738,20.019531,36.621094,45.898438,35.156250
8.262644,41.503906,37.109375,43.457031,30.273438
8.266550,11.718750,34.667969,42.968750,23.437500
8.270456,44.921875,31.250000,40.039062,34.667969
8.274363,43.945312,33.691406,41.015625,44.433594
8.304369,15.625000,35.644531,43.457031,31.250000
8.308276,43.457031,33.203125,41.503906,25.878906
8.312182,16.113281,35.644531,41.503906,20.507812
8.316088,41.015625,34.179688,37.597656,27.832031
8.319994,54.687500,37.597656,36.132812,43.945312
8.323901,22.949219,42.968750,40.039062,35.644531
8.325355,24.902344,29.296875,37.109375,30.273438
8.327807,44.921875,38.574219,39.550781,34.179688
8.329262,30.761719,22.949219,38.085938,33.203125
8.331713,15.625000,37.597656,36.132812,25.390625
8.333168,69.335938,27.343750,36.132812,51.757812
8.335619,36.132812,34.667969,32.226562,30.273438
8.337074,27.832031,43.945312,40.527344,44.921875
8.339526,61.523438,33.203125,36.132812,50.292969
8.340980,46.386719,41.015625,43.457031,42.968750
8.343432,18.554688,39.062500,40.527344,43.457031
8.344887,31.250000,44.921875,44.433594,37.597656
8.347338,44.433594,37.109375,35.644531,39.062500
8.348793,22.460938,48.339844,40.039062,36.132812
8.352699,68.359375,42.968750,37.597656,54.199219
8.356605,29.785156,45.410156,41.015625,53.710938
8.360512,37.109375,45.898438,41.992188,46.875000
8.364418,32.226562,44.921875,41.992188,36.621094
8.368324,17.578125,38.085938,40.527344,29.785156
8.398768,65.917969,33.203125,38.574219,48.828125
8.402675,30.273438,40.039062,40.527344,50.292969
8.406581,26.367188,40.527344,39.550781,40.527344
8.410487,35.644531,38.085938,41.503906,33.203125
8.414393,17.578125,35.644531,42.968750,27.343750
8.418300,57.128906,29.785156,40.527344,47.363281
8.420257,21.484375,39.062500,41.992188,44.433594
8.422206,28.320312,27.343750,42.968750,52.246094
8.424164,37.597656,37.109375,39.062500,37.597656
8.426112,22.949219,28.320312,42.480469,39.062500
8.428070,12.207031,34.179688,38.574219,26.367188
8.430018,34.667969,33.691406,43.945312,34.667969
8.431976,52.734375,28.320312,34.667969,39.550781
8.433925,12.207031,37.109375,43.457031,31.738281
8.435882,46.386719,31.738281,38.574219,54.199219
8.437831,58.593750,35.644531,39.550781,45.898438
8.439789,14.160156,35.644531,43.457031,41.992188
8.441737,41.503906,38.574219,42.480469,52.734375
8.443695,44.921875,36.132812,41.503906,36.621094
8.447601,25.390625,33.691406,41.015625,26.855469
8.451507,50.781250,29.296875,38.574219,34.667969
8.455414,55.664062,32.226562,40.527344,52.246094
8.459320,25.390625,35.644531,42.480469,41.503906
8.463226,50.292969,30.761719,41.015625,36.621094
8.492205,15.136719,31.738281,41.503906,27.832031
8.496112,32.226562,31.250000,38.574219,33.203125
8.500018,54.199219,29.785156,41.015625,48.339844
8.503924,15.136719,34.667969,43.457031,39.062500
8.507830,37.109375,33.691406,41.015625,33.691406
8.511737,8.789062,32.226562,42.480469,21.484375
8.514042,60.546875,30.761719,35.644531,40.527344
8.515643,22.460938,27.832031,40.039062,21.972656
8.517948,25.878906,37.109375,40.527344,40.527344
8.519549,57.128906,27.343750,38.085938,42.968750
8.521854,43.457031,37.109375,40.527344,33.691406
8.523455,12.207031,36.132812,40.527344,41.503906
8.525760,36.132812,34.179688,38.574219,26.855469
8.527362,32.226562,36.132812,38.574219,32.714844
8.529667,20.996094,32.226562,37.109375,23.437500
8.531268,15.625000,35.156250,37.597656,20.996094
8.533573,68.359375,30.761719,32.714844,41.992188
8.535174,16.113281,31.738281,36.132812,20.507812
8.537479,32.714844,35.644531,31.250000,44.433594
8.541385,33.691406,37.109375,31.738281,36.132812
8.545292,39.550781,34.667969,36.621094,30.273438
8.549198,22.460938,26.855469,36.621094,27.343750
8.553104,68.359375,25.390625,33.691406,47.851562
8.557010,38.085938,35.644531,34.667969,52.734375
8.586399,34.667969,37.597656,35.644531,44.433594
8.590305,50.781250,39.550781,36.621094,38.574219
8.594212,25.878906,41.503906,33.691406,26.367188
8.598118,69.824219,34.179688,30.761719,41.503906
8.602024,44.921875,32.714844,34.667969,52.734375
8.605930,22.460938,30.761719,39.550781,39.550781
8.607694,11.230469,40.527344,34.667969,19.042969
8.609837,43.457031,30.761719,39.550781,31.738281
8.611600,47.363281,32.714844,33.203125,27.343750
