timestamp_s,eeg_1,eeg_2,eeg_3,eeg_4
-0.937500,58.105469,26.367188,36.132812,39.550781
-0.933594,61.523438,23.925781,35.644531,54.687500
-0.929688,31.738281,30.761719,42.480469,51.757812
-0.925781,49.316406,25.878906,39.550781,45.898438
-0.921875,29.296875,22.949219,39.062500,36.621094
-0.917969,45.898438,27.343750,37.597656,42.968750
-0.914062,62.011719,30.273438,37.597656,62.500000
-0.910156,33.691406,34.667969,40.527344,57.128906
-0.906250,50.781250,34.667969,38.085938,50.292969
-0.902344,38.574219,34.179688,38.574219,41.992188
-0.898438,47.851562,29.785156,36.621094,41.015625
-0.894531,68.847656,30.273438,33.203125,58.593750
-0.890625,38.574219,36.621094,36.132812,54.687500
-0.886719,48.828125,34.179688,35.156250,44.921875
-0.882812,37.597656,33.203125,34.667969,33.691406
-0.878906,41.015625,35.156250,34.667969,33.203125
-0.875000,74.218750,33.691406,33.691406,52.734375
-0.871094,38.085938,36.621094,36.621094,54.687500
-0.867188,46.875000,38.574219,35.644531,43.457031
-0.863281,48.828125,39.062500,36.621094,32.226562
-0.859375,39.550781,36.621094,35.644531,29.296875
-0.855469,69.335938,26.855469,32.714844,44.921875
-0.851562,35.156250,26.367188,35.156250,47.851562
-0.847656,30.761719,30.273438,34.667969,36.621094
-0.843750,31.738281,37.109375,35.156250,27.832031
-0.839844,18.554688,42.480469,34.179688,22.460938
-0.835938,58.105469,37.597656,33.691406,40.039062
-0.832031,35.156250,40.039062,39.550781,50.781250
-0.828125,29.296875,42.968750,37.597656,41.992188
-0.824219,45.898438,41.015625,37.597656,34.667969
-0.820312,28.808594,36.621094,39.062500,26.855469
-0.816406,63.964844,30.761719,33.691406,41.992188
-0.812500,46.875000,31.250000,34.179688,51.269531
-0.808594,29.785156,31.738281,36.132812,39.062500
-0.804688,44.921875,31.250000,34.667969,33.691406
-0.800781,22.949219,31.738281,31.738281,26.367188
-0.796875,53.710938,29.785156,28.320312,34.667969
-0.792969,49.804688,33.691406,30.761719,45.898438
-0.789062,27.832031,36.621094,32.714844,37.597656
-0.785156,45.410156,34.179688,32.226562,29.296875
-0.781250,29.785156,36.132812,34.667969,22.460938
-0.777344,59.082031,37.109375,34.179688,32.714844
-0.773438,65.429688,35.644531,36.621094,45.898438
-0.769531,34.667969,33.203125,41.503906,40.527344
-0.765625,47.851562,34.667969,42.480469,36.132812
-0.761719,29.296875,35.644531,41.503906,24.414062
-0.757812,47.851562,26.855469,38.574219,28.808594
-0.753906,57.128906,23.925781,40.039062,49.316406
-0.750000,21.972656,36.621094,44.433594,43.945312
-0.746094,36.621094,40.039062,42.968750,31.738281
-0.742188,19.531250,32.714844,41.503906,19.042969
-0.738281,31.250000,34.667969,38.085938,24.902344
-0.734375,56.640625,37.597656,37.109375,44.921875
-0.730469,23.925781,41.503906,39.062500,39.062500
-0.726562,38.574219,41.503906,37.109375,29.785156
-0.722656,29.785156,39.062500,38.574219,20.996094
-0.718750,33.691406,37.109375,36.621094,20.507812
-0.714844,63.476562,31.738281,33.203125,34.667969
-0.710938,30.761719,31.250000,39.062500,34.179688
-0.707031,38.574219,34.667969,41.503906,27.343750
-0.703125,35.156250,35.156250,40.039062,22.949219
-0.699219,27.343750,33.691406,36.621094,23.437500
-0.695312,55.664062,32.226562,32.714844,41.503906
-0.691406,26.855469,34.179688,36.621094,44.433594
-0.687500,29.296875,33.203125,41.015625,37.109375
-0.683594,29.785156,33.691406,39.062500,29.785156
-0.679688,24.414062,31.250000,34.667969,25.390625
-0.675781,61.035156,27.832031,36.621094,41.992188
-0.671875,34.179688,25.878906,40.527344,45.410156
-0.667969,34.667969,25.390625,40.039062,38.085938
-0.664062,42.480469,33.691406,40.039062,32.226562
-0.660156,24.902344,38.574219,38.574219,27.832031
-0.656250,62.988281,36.132812,35.156250,44.921875
-0.652344,40.527344,38.574219,38.085938,51.757812
-0.648438,26.367188,40.039062,39.550781,42.968750
-0.644531,39.062500,37.109375,37.109375,35.644531
-0.640625,20.019531,35.156250,35.156250,25.878906
-0.636719,56.152344,34.667969,33.203125,38.085938
-0.632812,42.968750,37.597656,38.574219,47.363281
-0.628906,20.019531,37.597656,41.992188,41.015625
-0.625000,39.550781,34.179688,40.527344,38.574219
-0.621094,21.484375,34.179688,41.503906,33.691406
-0.617188,51.269531,33.203125,36.621094,46.386719
-0.613281,45.898438,32.714844,37.109375,56.640625
-0.609375,19.042969,33.203125,39.550781,46.875000
-0.605469,38.574219,33.691406,36.132812,41.992188
-0.601562,14.648438,30.761719,37.597656,31.738281
-0.597656,37.109375,23.925781,35.644531,34.667969
-0.593750,45.898438,25.878906,33.691406,45.898438
-0.589844,11.230469,31.738281,38.574219,40.527344
-0.585938,28.808594,30.761719,40.527344,38.085938
-0.582031,11.718750,31.250000,39.062500,27.343750
-0.578125,28.320312,27.343750,34.179688,29.296875
-0.574219,41.503906,26.855469,32.714844,47.363281
-0.570312,12.207031,32.226562,36.132812,41.992188
-0.566406,31.250000,31.250000,33.203125,33.203125
-0.562500,18.066406,33.691406,30.273438,25.878906
-0.558594,30.761719,33.203125,28.320312,29.785156
-0.554688,54.199219,27.832031,27.343750,50.292969
-0.550781,17.578125,28.808594,30.761719,42.480469
-0.546875,28.320312,27.832031,32.226562,34.667969
-0.542969,26.855469,24.414062,36.621094,38.574219
-0.539062,35.156250,28.320312,33.203125,41.992188
-0.535156,66.894531,32.226562,26.855469,47.363281
-0.531250,20.019531,36.132812,28.320312,30.273438
-0.527344,17.089844,32.714844,24.414062,22.460938
-0.523438,26.367188,32.714844,23.437500,28.320312
-0.519531,20.507812,35.644531,24.414062,26.367188
-0.515625,52.734375,30.273438,23.925781,43.457031
-0.511719,27.343750,35.644531,26.367188,47.363281
-0.507812,24.902344,31.250000,24.902344,35.156250
-0.503906,30.761719,24.902344,24.902344,35.644531
-0.500000,25.878906,29.296875,27.343750,33.691406
-0.496094,64.453125,20.996094,26.367188,41.503906
-0.492188,42.968750,20.996094,27.343750,46.386719
-0.488281,34.179688,29.785156,28.320312,37.597656
-0.484375,44.433594,40.527344,28.808594,30.273438
-0.480469,31.738281,40.527344,25.878906,24.414062
-0.476562,70.800781,35.644531,21.972656,37.597656
-0.472656,55.664062,44.921875,27.832031,45.898438
-0.468750,34.667969,43.945312,29.785156,37.109375
-0.464844,43.945312,35.156250,28.808594,28.320312
-0.460938,24.414062,18.066406,29.785156,19.531250
-0.457031,51.757812,-3.417969,23.925781,29.785156
-0.453125,44.433594,-8.300781,26.367188,42.968750
-0.449219,20.507812,-7.812500,29.785156,37.109375
-0.445312,41.503906,-12.207031,28.808594,36.621094
-0.441406,25.878906,-16.113281,29.785156,32.714844
-0.437500,50.781250,-20.996094,28.808594,39.550781
-0.433594,57.128906,-20.019531,30.273438,52.734375
-0.429688,29.785156,-19.531250,35.156250,47.851562
-0.425781,48.828125,-21.972656,39.062500,46.386719
-0.421875,32.226562,-20.996094,37.597656,37.109375
-0.417969,49.804688,-27.832031,35.644531,40.039062
-0.414062,65.429688,-33.691406,36.132812,55.175781
-0.410156,33.691406,-35.644531,41.015625,49.804688
-0.406250,44.921875,-42.480469,40.039062,46.875000
-0.402344,29.296875,-44.433594,38.085938,40.527344
-0.398438,42.480469,-44.921875,37.109375,39.550781
-0.394531,61.523438,-39.550781,33.203125,50.292969
-0.390625,27.832031,-28.320312,40.039062,45.410156
-0.386719,40.527344,-18.066406,41.992188,36.132812
-0.382812,25.878906,-13.183594,39.062500,24.414062
-0.378906,29.785156,-15.136719,37.109375,23.437500
-0.375000,57.128906,-9.277344,34.179688,32.714844
-0.371094,23.437500,-4.394531,38.085938,27.832031
-0.367188,37.597656,-1.464844,38.085938,28.320312
-0.363281,27.832031,5.859375,40.039062,22.460938
-0.359375,1.464844,3.417969,36.621094,3.906250
-0.355469,31.250000,4.882812,31.250000,7.324219
-0.351562,0.000000,18.554688,30.273438,1.953125
-0.347656,-14.160156,21.972656,28.808594,-12.207031
-0.343750,-17.578125,23.437500,30.273438,-25.390625
-0.339844,-32.226562,32.226562,23.437500,-39.550781
-0.335938,0.488281,34.667969,17.578125,-33.203125
-0.332031,-24.414062,34.667969,27.832031,-29.785156
-0.328125,-39.062500,38.085938,31.250000,-36.132812
-0.324219,-37.597656,42.480469,24.414062,-48.339844
-0.320312,-61.035156,41.503906,19.531250,-62.500000
-0.316406,-29.785156,32.226562,18.554688,-53.222656
-0.312500,-50.781250,33.691406,22.460938,-45.898438
-0.308594,-59.570312,39.550781,22.949219,-53.710938
-0.304688,-46.875000,41.015625,22.460938,-65.429688
-0.300781,-65.917969,48.339844,21.972656,-68.359375
-0.296875,-26.367188,48.828125,18.066406,-52.246094
-0.292969,-47.851562,50.292969,20.996094,-52.246094
-0.289062,-75.195312,53.222656,23.925781,-62.988281
-0.285156,-54.199219,52.246094,23.925781,-63.476562
-0.281250,-68.847656,51.269531,25.390625,-69.335938
-0.277344,-42.968750,47.363281,24.902344,-62.011719
-0.273438,-51.269531,49.804688,23.437500,-55.664062
-0.269531,-72.753906,53.222656,25.878906,-62.500000
-0.265625,-53.222656,52.246094,27.832031,-67.382812
-0.261719,-71.777344,51.757812,28.320312,-72.753906
-0.257812,-45.898438,47.363281,25.390625,-63.964844
-0.253906,-33.691406,41.503906,26.367188,-47.363281
-0.250000,-57.617188,45.898438,29.785156,-45.410156
-0.246094,-36.621094,51.269531,26.855469,-49.804688
-0.242188,-61.523438,52.246094,23.925781,-70.800781
-0.238281,-47.851562,50.292969,19.531250,-69.824219
-0.234375,-23.925781,47.363281,22.460938,-44.921875
-0.230469,-55.175781,51.757812,21.972656,-53.222656
-0.226562,-40.527344,51.269531,19.042969,-57.617188
-0.222656,-51.757812,43.945312,22.460938,-59.570312
-0.218750,-46.386719,41.015625,23.925781,-60.546875
-0.214844,-27.343750,49.316406,21.972656,-43.457031
-0.210938,-66.406250,61.523438,23.925781,-48.828125
-0.207031,-50.781250,58.105469,26.367188,-57.617188
-0.203125,-52.734375,45.410156,28.808594,-61.523438
-0.199219,-58.593750,41.015625,25.390625,-65.429688
-0.195312,-23.925781,41.992188,20.507812,-50.781250
-0.191406,-63.476562,47.851562,21.484375,-53.710938
-0.187500,-65.429688,47.363281,21.484375,-68.359375
-0.183594,-53.710938,45.898438,21.484375,-67.871094
-0.179688,-56.152344,42.480469,19.042969,-67.871094
-0.175781,-30.273438,39.550781,15.625000,-60.058594
-0.171875,-62.988281,46.386719,19.531250,-53.710938
-0.167969,-65.917969,47.851562,21.972656,-56.640625
-0.164062,-60.546875,47.363281,20.996094,-69.824219
-0.160156,-68.847656,44.921875,20.019531,-79.589844
-0.156250,-26.855469,43.457031,18.554688,-62.011719
-0.152344,-52.246094,49.804688,17.089844,-60.058594
-0.148438,-68.847656,53.710938,18.066406,-73.730469
-0.144531,-58.105469,53.710938,20.019531,-77.636719
-0.140625,-69.335938,51.757812,22.460938,-77.148438
-0.136719,-36.621094,45.410156,24.414062,-62.988281
-0.132812,-55.175781,41.503906,27.832031,-55.175781
-0.128906,-70.312500,38.085938,31.250000,-61.523438
-0.125000,-59.082031,38.085938,28.808594,-70.800781
-0.121094,-88.378906,43.457031,25.878906,-85.937500
-0.117188,-51.757812,45.410156,21.484375,-75.683594
-0.113281,-51.757812,48.339844,22.949219,-60.546875
-0.109375,-83.007812,50.292969,27.343750,-66.894531
-0.105469,-65.917969,41.503906,30.761719,-65.917969
-0.101562,-80.078125,36.621094,32.226562,-67.871094
-0.097656,-50.781250,32.714844,29.785156,-62.500000
-0.093750,-54.199219,33.691406,30.761719,-55.664062
-0.089844,-76.171875,42.480469,29.785156,-62.500000
-0.085938,-46.386719,41.992188,25.878906,-64.941406
-0.082031,-62.988281,40.039062,31.250000,-67.382812
-0.078125,-46.386719,35.156250,36.132812,-58.105469
-0.074219,-36.132812,36.621094,35.156250,-46.875000
-0.070312,-66.406250,40.527344,33.203125,-55.175781
-0.066406,-45.898438,41.015625,27.832031,-62.988281
-0.062500,-59.570312,39.062500,31.250000,-70.312500
-0.058594,-51.269531,32.226562,33.691406,-60.058594
-0.054688,-23.437500,30.273438,31.250000,-41.503906
-0.050781,-55.175781,35.644531,34.179688,-43.945312
-0.046875,-53.222656,37.109375,32.714844,-52.734375
-0.042969,-63.964844,34.667969,35.156250,-64.453125
-0.039062,-57.617188,29.296875,39.550781,-56.152344
-0.035156,-27.832031,29.785156,30.761719,-36.621094
-0.031250,-59.082031,37.597656,29.296875,-45.898438
-0.027344,-48.828125,36.621094,35.156250,-52.246094
-0.023438,-52.246094,31.738281,36.621094,-50.292969
-0.019531,-57.128906,28.320312,38.574219,-49.804688
-0.015625,-22.949219,28.320312,37.109375,-33.691406
-0.011719,-48.339844,35.644531,37.109375,-36.621094
-0.007812,-41.015625,35.644531,39.062500,-45.410156
-0.003906,-39.550781,32.714844,38.574219,-47.851562
0.025965,-46.386719,35.156250,35.156250,-49.316406
0.029871,-5.859375,36.132812,33.691406,-29.296875
0.033777,-30.761719,39.062500,39.550781,-24.902344
0.037684,-42.480469,35.644531,42.968750,-33.691406
0.041590,-30.761719,31.250000,43.457031,-31.250000
0.045496,-41.015625,33.691406,41.015625,-37.597656
0.047015,-11.230469,28.808594,41.503906,-8.789062
0.049402,-7.812500,33.691406,33.203125,-35.644531
0.050921,-29.296875,20.019531,44.921875,-12.695312
0.053309,-24.902344,36.132812,36.132812,-24.902344
0.054827,-3.906250,19.042969,44.921875,-12.207031
0.057215,-36.621094,36.621094,39.550781,-26.367188
0.058733,-22.460938,39.062500,40.527344,-21.972656
0.061121,-20.019531,34.179688,39.550781,-28.808594
0.062640,3.906250,41.015625,32.714844,-16.113281
0.065027,-42.968750,29.785156,39.550781,-38.085938
0.066546,9.277344,33.203125,32.714844,-1.464844
0.068934,-8.789062,28.320312,37.109375,-23.925781
0.070452,-19.042969,41.015625,33.691406,-5.859375
0.074358,1.953125,42.968750,35.644531,-4.394531
0.078265,-24.414062,35.644531,38.574219,-17.089844
0.082171,-5.371094,25.878906,35.644531,-13.671875
0.086077,11.718750,27.343750,40.039062,11.230469
0.089983,-20.019531,36.621094,39.062500,-3.417969
0.118545,-6.835938,35.644531,36.621094,-14.160156
0.122451,-27.832031,33.203125,41.992188,-17.578125
0.126358,-23.925781,27.832031,39.550781,-20.507812
0.130264,-0.976562,26.855469,39.550781,-1.464844
0.134170,-24.414062,34.667969,42.968750,-1.953125
0.138076,-9.765625,39.062500,44.921875,-10.742188
0.139575,-20.019531,35.644531,41.503906,-10.742188
0.141983,-26.367188,31.250000,47.363281,-19.531250
0.143482,10.253906,31.250000,40.039062,4.394531
0.145889,-10.253906,18.066406,46.386719,-10.742188
0.147388,-9.765625,30.273438,45.898438,7.812500
0.149795,18.066406,20.996094,42.480469,4.394531
0.151294,-2.929688,32.226562,45.410156,1.953125
0.153701,-23.437500,34.179688,39.550781,-9.277344
0.155200,-8.300781,31.738281,41.015625,-14.160156
0.157608,-4.394531,41.015625,39.550781,-8.789062
0.159107,-9.765625,34.179688,38.085938,-19.042969
0.161514,-6.347656,38.574219,42.480469,-9.765625
0.163013,31.738281,35.156250,33.691406,5.859375
0.166919,3.906250,36.132812,38.085938,15.625000
0.170825,5.371094,35.644531,41.015625,6.347656
0.174732,11.230469,36.621094,39.550781,-1.464844
0.178638,-8.300781,36.132812,39.062500,-3.906250
0.182544,19.042969,26.367188,37.597656,10.253906
0.211223,6.347656,27.343750,40.527344,19.042969
0.215129,3.906250,38.085938,43.945312,20.996094
0.219036,3.906250,40.527344,38.085938,0.000000
0.222942,-11.230469,37.109375,29.296875,-17.089844
0.226848,33.691406,32.226562,31.250000,16.601562
0.230754,20.019531,35.644531,39.550781,23.437500
0.232095,18.554688,27.343750,40.527344,18.554688
0.234661,-3.906250,36.132812,41.503906,8.789062
0.236002,0.488281,32.714844,41.015625,7.324219
0.238567,18.554688,29.785156,38.085938,13.183594
0.239908,27.832031,34.667969,37.597656,14.648438
0.242473,3.906250,30.761719,37.597656,3.417969
0.243814,37.109375,43.457031,37.109375,23.437500
0.246379,29.785156,29.296875,37.109375,7.812500
0.247720,1.464844,43.945312,33.691406,8.789062
0.250286,29.296875,27.832031,39.062500,20.019531
0.251627,18.066406,39.550781,34.667969,13.671875
0.254192,3.906250,25.390625,40.039062,18.554688
0.255533,2.929688,35.156250,38.085938,9.765625
0.259439,13.183594,22.949219,33.691406,10.253906
0.263345,34.667969,22.949219,36.621094,37.109375
0.267252,7.324219,34.667969,37.597656,30.273438
0.271158,16.113281,37.109375,32.714844,14.648438
0.275064,6.347656,35.156250,32.226562,12.695312
0.304971,24.414062,28.320312,33.691406,21.972656
0.308877,47.851562,23.437500,37.597656,40.527344
0.312783,20.507812,29.296875,41.015625,46.875000
0.316689,31.738281,31.738281,39.550781,35.644531
0.320596,14.160156,36.132812,39.550781,16.113281
0.324502,14.160156,33.691406,38.085938,18.554688
0.325914,29.785156,35.644531,29.296875,33.691406
0.328408,42.968750,25.878906,39.550781,41.015625
0.329820,33.203125,45.898438,35.156250,34.179688
0.332314,2.441406,19.531250,44.433594,39.550781
0.333726,26.367188,39.550781,34.179688,23.925781
0.336221,9.765625,20.019531,42.968750,30.761719
0.337633,19.042969,35.156250,32.714844,23.437500
0.340127,18.066406,34.179688,39.550781,19.531250
0.341539,56.640625,36.621094,29.296875,39.550781
0.344033,10.742188,41.503906,34.179688,13.671875
0.345445,17.578125,39.550781,28.808594,33.691406
0.347939,47.851562,35.156250,25.390625,30.273438
0.349351,10.253906,36.132812,32.714844,21.484375
0.353258,30.761719,35.644531,37.109375,21.484375
0.357164,14.160156,32.226562,36.132812,20.019531
0.361070,51.269531,24.902344,31.738281,34.179688
0.364976,36.621094,30.761719,30.761719,43.457031
0.368883,11.230469,35.644531,28.808594,23.925781
0.397963,28.320312,33.203125,29.785156,21.972656
0.401869,11.230469,29.785156,35.644531,27.832031
0.405776,39.550781,24.414062,36.621094,37.109375
0.409682,33.691406,27.832031,36.621094,48.828125
0.413588,13.183594,34.667969,37.109375,44.433594
0.417494,39.550781,36.132812,36.621094,34.667969
0.419099,44.921875,43.945312,26.855469,35.644531
0.421401,21.972656,36.621094,34.179688,23.437500
0.423005,57.617188,40.527344,27.832031,48.828125
0.425307,39.062500,32.714844,29.785156,38.574219
0.426912,16.601562,39.550781,32.714844,42.480469
0.429213,41.992188,28.808594,31.250000,52.246094
0.430818,41.015625,36.132812,33.203125,39.550781
0.433119,18.066406,28.320312,36.621094,43.457031
0.434724,36.132812,39.062500,34.667969,42.480469
0.437026,35.156250,31.250000,36.621094,42.968750
0.438630,41.992188,39.062500,32.714844,34.667969
0.440932,18.066406,41.503906,33.691406,32.226562
0.442537,60.058594,37.597656,32.226562,46.386719
0.446443,34.667969,43.945312,37.109375,51.757812
0.450349,49.316406,38.574219,37.597656,42.480469
0.454255,37.597656,31.250000,37.109375,41.015625
0.458162,47.363281,34.179688,34.667969,40.527344
0.462068,74.707031,40.039062,30.761719,45.898438
0.490380,47.363281,43.457031,33.203125,46.386719
0.494286,66.894531,41.503906,36.132812,52.734375
0.498192,62.988281,37.597656,40.039062,53.222656
0.502098,56.152344,34.667969,39.062500,50.292969
0.506005,92.285156,35.156250,36.621094,67.382812
0.509911,62.011719,42.480469,37.109375,70.800781
0.511245,82.031250,28.808594,35.156250,74.218750
0.513817,67.871094,41.015625,32.226562,63.964844
0.515151,59.570312,29.296875,34.179688,63.476562
0.517723,80.078125,37.109375,31.250000,67.382812
0.519058,94.726562,29.785156,31.250000,65.429688
0.521630,67.871094,32.714844,35.156250,69.824219
0.522964,72.753906,29.785156,37.597656,74.707031
0.525536,99.121094,23.925781,34.179688,79.101562
0.526870,56.640625,32.226562,44.921875,73.730469
0.529442,76.171875,23.925781,38.574219,89.843750
0.530776,62.988281,36.621094,40.527344,66.406250
0.533348,79.101562,26.367188,39.062500,83.007812
0.534683,34.179688,33.203125,36.132812,43.457031
0.538589,65.917969,32.226562,27.343750,41.015625
0.542495,62.500000,36.621094,26.855469,57.128906
0.546401,36.132812,34.179688,36.132812,52.734375
0.550308,49.804688,35.644531,37.597656,53.222656
0.554214,31.250000,40.039062,34.179688,39.062500
0.582728,56.640625,37.109375,28.320312,39.062500
0.586634,58.593750,41.992188,28.808594,53.222656
0.590541,34.667969,50.292969,34.179688,50.781250
0.594447,56.152344,43.457031,33.203125,49.316406
0.598353,38.085938,36.621094,35.644531,38.574219
0.602259,65.429688,33.691406,35.156250,51.757812
0.606166,76.660156,36.132812,34.179688,68.847656
0.607798,49.804688,47.851562,36.132812,60.546875
0.610072,40.039062,42.968750,35.156250,54.687500
0.611704,55.664062,44.921875,38.574219,53.710938
0.613978,63.476562,43.457031,34.667969,47.851562
0.615611,42.480469,43.945312,41.992188,50.292969
0.617884,42.968750,47.363281,37.109375,44.921875
0.619517,54.687500,40.039062,40.039062,48.339844
0.621791,54.687500,43.945312,31.738281,44.921875
0.623423,72.753906,35.156250,39.550781,70.312500
0.625697,83.496094,44.433594,31.250000,61.523438
0.627329,38.574219,36.621094,43.457031,74.707031
0.631236,45.898438,39.550781,39.062500,59.082031
0.635142,29.785156,41.503906,36.132812,41.503906
0.639048,31.250000,40.527344,35.644531,36.132812
0.642954,60.058594,41.015625,35.644531,49.804688
0.646861,32.714844,42.480469,40.039062,48.828125
0.650767,39.062500,38.574219,41.992188,45.898438
0.654673,23.437500,40.039062,41.015625,36.621094
0.658579,18.554688,40.039062,34.667969,26.855469
0.662486,61.523438,37.597656,32.226562,41.503906
0.666392,30.761719,40.039062,39.062500,49.804688
0.670298,29.296875,38.574219,42.480469,49.804688
0.674204,42.968750,41.015625,41.992188,45.410156
0.678111,33.203125,45.410156,41.015625,42.480469
0.682017,65.429688,44.433594,36.132812,53.710938
0.685923,38.085938,47.363281,35.156250,54.687500
0.689829,31.250000,43.457031,39.062500,59.570312
0.693736,52.734375,30.273438,40.527344,52.246094
0.697642,32.226562,33.203125,39.062500,33.203125
0.726659,59.570312,39.550781,33.203125,35.644531
0.730565,46.386719,41.503906,33.203125,38.085938
0.734472,28.808594,42.968750,38.574219,39.550781
0.738378,40.527344,37.597656,43.945312,37.597656
0.742284,13.671875,31.738281,43.945312,28.808594
0.746190,51.269531,35.644531,37.597656,42.968750
0.747865,7.812500,40.039062,39.062500,41.992188
0.750097,49.804688,43.457031,38.085938,49.804688
0.751772,22.460938,40.039062,32.226562,24.414062
0.754003,6.835938,44.433594,36.132812,30.273438
0.755678,10.253906,41.015625,35.156250,14.160156
0.757909,23.925781,43.457031,34.667969,23.437500
0.759584,29.785156,38.574219,36.621094,21.484375
0.761815,12.207031,43.457031,36.621094,22.460938
0.763490,39.062500,36.132812,35.644531,30.761719
0.765722,24.414062,31.738281,32.226562,26.855469
0.767397,5.859375,30.273438,40.527344,30.761719
0.769628,32.226562,29.785156,37.597656,43.457031
0.771303,21.484375,20.996094,42.968750,25.878906
0.775209,9.765625,27.832031,40.039062,19.531250
0.779115,16.113281,34.667969,33.691406,10.253906
0.783022,37.597656,39.062500,29.785156,12.207031
0.786928,16.601562,45.410156,31.250000,29.785156
0.790834,32.226562,39.550781,36.621094,31.738281
0.819666,10.253906,32.226562,39.062500,18.554688
0.823572,25.390625,30.273438,32.226562,23.437500
0.827479,59.082031,31.738281,29.785156,40.527344
0.831385,15.625000,36.132812,34.667969,33.691406
0.835291,20.996094,37.109375,31.250000,21.972656
0.839197,35.156250,37.109375,30.273438,26.855469
0.840806,73.242188,33.203125,28.808594,48.339844
0.843104,38.574219,30.273438,32.226562,35.644531
0.844712,49.804688,42.968750,33.691406,58.105469
0.847010,54.687500,20.507812,33.691406,50.292969
0.848619,21.972656,34.179688,40.039062,39.062500
0.850916,36.621094,29.296875,40.039062,56.152344
0.852525,35.644531,31.738281,39.550781,38.085938
0.854822,48.339844,35.156250,37.109375,54.199219
0.856431,22.460938,41.503906,36.132812,32.226562
0.858729,45.898438,31.738281,38.085938,38.574219
0.860337,51.757812,42.480469,29.785156,27.343750
0.862635,30.273438,30.761719,38.085938,25.390625
0.864244,31.738281,38.574219,30.761719,30.273438
0.868150,13.671875,37.597656,35.644531,26.367188
0.872056,23.437500,34.667969,38.574219,29.296875
0.875962,14.648438,34.667969,38.085938,25.390625
0.879869,41.992188,37.597656,30.761719,34.667969
0.883775,22.460938,41.015625,27.343750,40.527344
0.912812,23.437500,41.992188,29.296875,30.273438
0.916718,43.945312,37.597656,34.667969,30.273438
0.920624,10.742188,34.667969,37.597656,30.273438
0.924530,35.644531,27.832031,33.691406,38.574219
0.928437,39.550781,31.738281,35.156250,58.105469
0.932343,20.019531,39.550781,36.621094,57.617188
0.933944,17.578125,31.738281,39.062500,34.179688
0.936249,41.503906,39.550781,35.156250,46.386719
0.937850,24.414062,32.226562,29.785156,28.808594
0.940155,19.531250,41.503906,33.203125,33.203125
0.941757,52.734375,33.203125,28.808594,47.851562
0.944062,40.039062,35.644531,26.855469,32.226562
0.945663,26.855469,36.132812,35.156250,53.710938
0.947968,50.292969,31.738281,31.250000,49.804688
0.949569,41.015625,28.808594,37.597656,42.968750
0.951874,16.113281,35.644531,38.574219,51.757812
0.953475,20.507812,25.878906,43.945312,51.269531
0.955780,35.644531,32.226562,39.062500,42.968750
0.957382,27.343750,31.250000,39.550781,51.269531
0.961288,65.429688,35.644531,34.667969,52.734375
0.965194,33.203125,42.480469,38.085938,52.734375
0.969100,46.875000,44.433594,38.574219,54.199219
0.973007,36.132812,44.921875,38.574219,43.457031
0.976913,31.738281,42.968750,35.644531,40.527344
1.005605,63.964844,37.109375,36.132812,55.175781
1.009511,33.203125,34.667969,43.457031,55.175781
1.013417,34.667969,32.226562,41.015625,46.386719
1.017324,25.878906,32.714844,38.574219,37.109375
1.021230,21.484375,30.273438,41.503906,40.039062
1.025136,64.453125,28.320312,37.597656,53.710938
1.026806,26.855469,36.621094,34.667969,48.339844
1.029042,27.343750,34.667969,36.621094,45.410156
1.030713,44.433594,35.644531,33.203125,41.015625
1.032949,21.972656,36.132812,33.203125,36.132812
1.034619,31.738281,35.644531,32.226562,30.761719
1.036855,34.667969,34.667969,29.785156,37.597656
1.038525,61.035156,30.761719,29.785156,50.292969
1.040761,20.019531,32.226562,32.714844,33.691406
1.042431,49.316406,29.785156,35.644531,66.894531
1.044667,52.246094,23.437500,35.644531,46.875000
1.046338,37.597656,33.203125,42.968750,61.523438
1.048574,36.132812,29.296875,37.109375,55.175781
1.050244,46.386719,35.644531,40.039062,46.386719
1.054150,19.531250,36.132812,34.667969,28.808594
1.058056,48.339844,34.179688,30.761719,43.945312
1.061963,31.738281,33.203125,32.714844,44.921875
1.065869,12.695312,34.667969,37.109375,33.203125
1.069775,34.179688,37.597656,37.597656,37.109375
1.098049,7.324219,41.503906,35.156250,21.972656
1.101955,41.992188,36.621094,31.738281,25.390625
1.105861,52.734375,27.343750,35.156250,47.363281
1.109768,26.367188,32.226562,38.574219,42.968750
1.113674,38.574219,39.062500,34.179688,30.273438
1.117580,21.484375,46.875000,32.714844,11.230469
1.119166,92.773438,31.250000,36.132812,72.265625
1.121486,49.804688,45.898438,31.738281,24.902344
1.123072,48.339844,32.226562,40.039062,68.359375
1.125393,69.335938,40.527344,33.691406,59.082031
1.126979,50.292969,24.902344,37.109375,45.410156
1.129299,43.457031,45.898438,39.550781,56.640625
1.130885,43.945312,28.808594,32.714844,38.574219
1.133205,64.453125,45.410156,38.574219,45.410156
1.134791,46.875000,35.644531,29.785156,41.015625
1.137111,50.781250,41.503906,37.597656,38.574219
1.138697,75.683594,33.691406,33.203125,69.335938
1.141018,63.476562,34.179688,35.644531,41.992188
1.142604,50.781250,38.085938,35.644531,74.218750
1.146510,50.292969,39.062500,30.273438,41.503906
1.150416,37.597656,42.480469,29.785156,30.273438
1.154322,35.644531,40.527344,28.320312,27.343750
1.158229,70.312500,32.714844,24.414062,44.433594
1.162135,42.968750,39.550781,28.808594,56.152344
1.190874,35.644531,32.714844,31.738281,44.921875
1.194780,34.179688,25.878906,33.691406,33.691406
1.198687,21.484375,34.179688,30.761719,24.902344
1.202593,55.664062,33.691406,27.832031,30.273438
1.206499,36.132812,38.574219,30.273438,41.503906
1.210405,10.742188,43.457031,28.320312,25.878906
1.211933,26.855469,40.527344,28.808594,27.832031
1.214312,13.671875,40.039062,28.320312,7.324219
1.215839,60.058594,33.691406,33.203125,50.292969
1.218218,8.789062,36.132812,32.226562,20.507812
1.219745,47.851562,34.179688,35.156250,55.664062
1.222124,50.292969,31.738281,31.738281,42.480469
1.223651,24.902344,36.621094,37.109375,39.062500
1.226030,35.644531,38.574219,32.226562,45.410156
1.227558,41.992188,35.156250,35.156250,37.109375
1.229937,18.554688,42.480469,30.761719,30.761719
1.231464,21.972656,33.691406,32.226562,36.132812
1.233843,37.109375,41.503906,26.367188,22.949219
1.235370,55.664062,30.761719,30.761719,42.968750
1.239276,63.476562,31.250000,33.691406,51.269531
1.243183,36.132812,35.644531,34.667969,48.339844
1.247089,56.152344,39.550781,32.226562,47.363281
1.250995,37.597656,39.062500,30.273438,30.761719
1.254901,62.011719,32.226562,26.855469,43.945312
1.283562,86.914062,31.738281,29.785156,77.148438
1.287468,56.640625,41.015625,35.156250,66.406250
1.291375,63.476562,45.410156,30.273438,47.363281
1.295281,49.804688,41.992188,29.785156,44.921875
1.299187,65.917969,33.203125,30.273438,52.246094
1.303093,87.890625,31.250000,31.250000,71.289062
1.307000,54.687500,40.527344,35.644531,68.847656
1.310906,62.988281,41.503906,34.667969,57.617188
1.314812,42.480469,37.597656,33.691406,41.992188
1.318718,49.316406,35.644531,27.832031,42.480469
1.322625,81.054688,36.132812,22.460938,56.640625
1.326531,41.503906,37.597656,27.832031,53.222656
1.355887,39.550781,33.203125,27.832031,42.968750
1.359794,27.343750,35.644531,28.808594,32.226562
1.363700,26.855469,39.062500,29.785156,24.902344
1.367606,59.082031,41.992188,27.832031,36.132812
1.371512,27.343750,45.410156,30.761719,35.644531
1.375419,29.785156,44.433594,27.832031,33.691406
1.377358,28.808594,26.855469,29.785156,25.878906
1.379325,34.179688,37.109375,27.832031,24.902344
1.381264,65.429688,37.109375,27.343750,49.316406
1.383231,27.832031,32.226562,26.855469,15.625000
1.385170,37.597656,43.945312,30.761719,56.640625
1.387137,59.082031,33.203125,23.925781,40.039062
1.389077,23.437500,39.550781,36.132812,48.339844
1.391044,31.738281,38.574219,29.785156,48.828125
1.392983,40.527344,31.738281,41.015625,48.828125
1.394950,34.179688,41.015625,33.691406,51.269531
1.396889,29.785156,33.691406,41.992188,43.945312
1.398856,39.550781,30.761719,31.738281,38.085938
1.400795,54.199219,35.644531,30.273438,38.085938
1.402231,51.269531,42.968750,30.273438,45.898438
1.404702,31.250000,35.644531,27.343750,32.226562
1.406137,19.531250,43.945312,36.621094,27.832031
1.408608,22.949219,32.714844,30.761719,27.343750
1.410043,36.621094,37.597656,36.132812,30.273438
1.412514,44.921875,32.226562,32.714844,31.738281
1.413950,25.390625,40.039062,33.691406,20.996094
1.416420,25.390625,32.714844,32.714844,23.437500
1.417856,37.109375,38.574219,32.714844,19.531250
1.420327,54.687500,32.226562,28.320312,37.109375
1.421762,40.039062,39.062500,30.761719,32.226562
1.425668,19.531250,42.968750,31.738281,23.437500
1.429575,36.132812,38.574219,31.250000,20.019531
1.433481,12.695312,39.062500,33.691406,18.066406
1.437387,34.179688,38.085938,35.644531,32.714844
1.441293,59.570312,35.644531,35.644531,50.781250
1.445200,26.855469,40.039062,38.085938,35.644531
1.449106,45.410156,37.597656,41.503906,35.644531
1.453012,26.367188,35.156250,39.550781,28.808594
1.456918,32.714844,36.132812,31.250000,24.414062
1.460825,54.687500,37.109375,30.761719,41.015625
1.464731,22.949219,37.597656,34.667969,45.898438
1.468637,40.527344,30.273438,38.085938,46.386719
1.472543,30.761719,27.343750,41.992188,37.597656
1.476450,29.785156,29.785156,38.085938,37.109375
1.480356,55.175781,31.738281,33.203125,43.457031
1.484262,23.437500,34.179688,34.667969,37.109375
1.488168,41.992188,28.808594,36.621094,42.968750
1.492075,31.738281,22.949219,36.621094,43.945312
1.520649,22.949219,26.855469,35.156250,41.503906
1.524555,69.335938,34.667969,33.203125,59.082031
1.528461,44.921875,41.015625,34.179688,51.757812
1.532368,28.320312,40.527344,33.691406,39.062500
1.536274,25.390625,35.644531,37.109375,37.109375
1.540180,23.437500,36.621094,35.644531,36.132812
1.541682,34.667969,32.226562,32.226562,44.921875
1.544086,60.058594,36.621094,29.296875,45.898438
1.545589,9.765625,36.621094,32.226562,31.738281
1.547993,31.250000,39.550781,31.738281,41.503906
1.549495,31.738281,34.667969,33.203125,33.203125
1.551899,24.902344,43.457031,31.738281,31.738281
1.553401,15.136719,34.179688,36.132812,27.832031
1.555805,37.597656,40.527344,31.250000,27.832031
1.557307,43.457031,30.761719,32.714844,40.527344
1.559711,20.019531,37.109375,31.250000,21.972656
1.561214,48.828125,31.250000,35.644531,58.105469
1.563618,53.222656,31.250000,28.320312,40.527344
1.565120,32.226562,35.156250,38.085938,46.875000
1.569026,47.851562,35.644531,35.644531,38.574219
1.572932,28.320312,34.667969,37.597656,38.574219
1.576839,60.546875,29.785156,38.574219,55.175781
1.580745,66.894531,32.714844,43.457031,66.406250
1.584651,35.156250,39.062500,45.410156,60.058594
1.613294,52.246094,41.015625,40.527344,46.386719
1.617200,35.156250,33.203125,38.574219,31.250000
1.621106,53.710938,24.902344,41.015625,47.851562
1.625012,67.382812,24.414062,43.945312,66.894531
1.628919,39.550781,38.085938,43.945312,57.128906
1.632825,49.804688,45.410156,38.085938,49.316406
1.634163,35.156250,39.062500,41.503906,36.132812
1.636731,30.761719,42.968750,40.039062,38.085938
1.638069,60.058594,37.597656,35.644531,44.433594
1.640637,41.503906,42.968750,40.039062,30.273438
1.641976,25.878906,40.039062,36.132812,42.968750
1.644544,66.406250,42.968750,34.667969,44.433594
1.645882,38.574219,39.550781,35.644531,37.597656
1.648450,36.132812,44.433594,35.644531,43.457031
1.649788,36.621094,38.574219,35.644531,32.226562
1.652356,43.945312,39.550781,40.527344,42.480469
1.653694,30.273438,35.644531,31.738281,27.832031
1.656262,31.738281,38.085938,46.386719,41.015625
1.657601,68.359375,34.179688,35.156250,48.339844
1.661507,49.804688,37.109375,41.992188,59.082031
1.665413,54.199219,37.109375,37.597656,56.640625
1.669319,49.804688,37.597656,37.597656,52.246094
1.673226,41.015625,35.156250,33.691406,45.410156
1.677132,86.425781,33.203125,29.296875,69.335938
1.705906,69.335938,47.363281,35.156250,76.171875
1.709813,62.500000,54.687500,34.667969,62.011719
1.713719,67.382812,44.433594,34.179688,61.523438
1.717625,54.199219,40.039062,37.597656,59.570312
1.721531,93.261719,39.062500,33.203125,66.406250
1.725438,62.500000,43.945312,31.250000,67.382812
1.726806,52.734375,44.921875,34.667969,50.781250
1.729344,35.644531,43.945312,37.597656,57.617188
1.730712,33.691406,44.433594,33.203125,38.574219
1.733250,57.128906,34.179688,43.457031,58.593750
1.734618,69.824219,39.550781,30.273438,41.503906
1.737156,41.503906,32.714844,39.062500,47.363281
1.738525,73.730469,41.015625,34.179688,63.476562
1.741063,70.800781,36.132812,33.691406,49.316406
1.742431,36.132812,42.968750,40.527344,54.199219
1.744969,62.011719,41.503906,37.109375,56.640625
1.746337,52.246094,41.992188,40.527344,44.921875
1.748875,35.156250,45.410156,38.085938,47.363281
1.750243,38.085938,45.410156,41.015625,34.179688
1.754150,55.175781,38.574219,36.621094,38.574219
1.758056,65.917969,37.109375,36.132812,53.710938
1.761962,37.597656,46.386719,38.085938,44.921875
1.765868,53.710938,47.851562,33.203125,46.875000
1.769775,48.339844,43.945312,34.667969,46.386719
1.798464,59.082031,34.179688,37.597656,49.804688
1.802370,69.824219,30.761719,37.109375,66.406250
1.806276,43.945312,35.644531,38.085938,66.894531
1.810182,58.593750,37.597656,41.015625,62.988281
1.814089,36.621094,40.527344,41.015625,51.269531
1.817995,43.945312,38.085938,33.691406,52.734375
1.821901,85.449219,36.132812,33.691406,77.148438
1.823813,43.457031,36.132812,38.085938,65.917969
1.825807,49.804688,33.691406,41.015625,77.148438
1.827719,55.664062,37.109375,41.015625,61.523438
1.829714,50.292969,27.832031,45.410156,68.359375
1.831625,48.339844,33.691406,42.968750,53.710938
1.833620,48.339844,25.390625,46.875000,67.382812
1.835531,32.714844,32.226562,42.968750,49.316406
1.837526,43.457031,24.414062,46.875000,56.640625
1.839438,63.964844,32.714844,37.109375,63.964844
1.841432,69.335938,26.855469,42.968750,66.894531
1.843344,33.691406,38.574219,34.667969,47.851562
1.847250,28.808594,39.062500,35.644531,35.644531
1.851156,28.320312,36.132812,31.738281,35.644531
1.855063,14.648438,21.972656,32.714844,33.691406
1.858969,55.664062,7.812500,34.179688,55.175781
1.862875,35.644531,19.042969,35.156250,54.199219
1.866781,11.230469,38.574219,35.644531,29.785156
1.870688,21.484375,47.851562,32.714844,22.460938
1.874594,16.113281,41.015625,30.761719,24.902344
1.878500,57.617188,36.132812,29.296875,44.921875
1.882406,48.339844,39.550781,38.085938,62.500000
1.886313,22.460938,43.457031,40.039062,49.804688
1.890219,36.132812,40.527344,33.203125,33.691406
1.894125,19.531250,36.621094,32.226562,27.832031
1.898031,50.781250,31.250000,27.832031,40.527344
1.901938,52.246094,30.273438,30.273438,54.687500
1.905844,24.414062,34.667969,35.156250,50.292969
1.909750,37.109375,37.597656,32.714844,40.527344
1.913656,26.855469,38.574219,35.156250,37.109375
1.942755,50.781250,33.691406,33.691406,43.457031
1.946661,55.664062,36.132812,33.691406,64.941406
1.950568,31.738281,41.503906,38.085938,66.894531
1.954474,43.945312,33.691406,41.503906,52.246094
1.958380,27.832031,31.250000,42.480469,51.269531
1.962286,53.222656,35.644531,39.062500,55.664062
1.963862,41.015625,37.597656,40.527344,51.269531
1.966193,64.453125,36.132812,40.039062,65.429688
1.967768,55.664062,36.621094,39.550781,43.945312
1.970099,23.437500,36.132812,43.945312,57.128906
1.971675,34.179688,40.039062,37.597656,30.761719
1.974005,46.386719,36.132812,39.550781,50.292969
1.975581,33.203125,39.550781,34.667969,25.878906
1.977911,36.621094,38.574219,35.644531,35.644531
1.979487,72.753906,37.109375,36.621094,51.757812
1.981818,43.457031,34.667969,32.714844,37.109375
1.983393,41.503906,41.015625,41.992188,58.105469
1.985724,65.917969,32.714844,33.691406,59.082031
1.987300,38.574219,40.039062,36.621094,44.433594
1.991206,38.574219,43.457031,37.109375,31.250000
1.995112,45.410156,41.503906,38.085938,33.203125
1.999018,79.101562,35.156250,36.621094,50.781250
2.002925,42.968750,40.527344,41.503906,53.222656
2.006831,40.527344,42.480469,40.039062,40.039062
2.035635,49.316406,40.527344,39.550781,37.109375
2.039541,37.597656,33.691406,42.968750,44.433594
2.043447,74.218750,28.320312,43.945312,56.152344
2.047354,51.269531,39.550781,44.433594,62.011719
2.051260,46.386719,40.527344,43.945312,52.734375
2.055166,62.011719,28.808594,46.875000,52.246094
2.056676,64.941406,32.714844,36.132812,59.082031
2.059072,35.156250,24.414062,44.921875,44.433594
2.060582,57.617188,36.621094,34.667969,63.476562
2.062979,65.917969,21.484375,40.039062,53.222656
2.064488,25.878906,38.574219,38.085938,51.757812
2.066885,63.964844,25.390625,41.992188,71.289062
2.068394,48.828125,34.667969,40.039062,43.457031
2.070791,42.480469,33.691406,45.898438,57.617188
2.072301,34.179688,35.156250,40.527344,38.085938
2.074697,55.664062,39.550781,41.992188,45.410156
2.076207,47.851562,31.250000,33.203125,34.667969
2.078604,37.109375,39.550781,38.574219,47.851562
2.080113,46.386719,33.203125,35.156250,40.039062
2.084019,27.343750,35.156250,38.574219,42.968750
2.087926,45.898438,35.156250,33.691406,37.109375
2.091832,17.089844,38.574219,37.597656,24.414062
2.095738,30.273438,35.644531,38.574219,35.156250
2.099644,53.710938,36.621094,35.644531,51.269531
2.128187,22.949219,41.503906,39.062500,41.015625
2.132093,37.597656,41.503906,38.574219,36.621094
2.135999,23.437500,40.527344,38.574219,35.156250
2.139906,41.503906,34.667969,37.597656,37.597656
2.143812,62.988281,31.250000,36.132812,46.875000
2.147718,28.808594,37.597656,39.550781,45.898438
2.151624,42.968750,41.503906,42.968750,46.875000
2.153031,25.390625,40.527344,35.156250,31.738281
2.155531,24.902344,43.457031,45.410156,40.039062
2.156937,29.785156,35.644531,29.785156,35.644531
2.159437,30.761719,33.691406,41.992188,41.503906
2.160843,64.453125,33.203125,30.761719,60.058594
2.163343,62.500000,33.691406,40.039062,58.593750
2.164749,34.667969,36.132812,38.085938,49.316406
2.167249,31.738281,43.945312,42.968750,47.363281
2.168656,35.156250,36.621094,34.179688,44.433594
2.171156,33.691406,43.457031,38.574219,36.621094
2.172562,26.855469,35.644531,33.203125,33.691406
2.176468,20.019531,30.761719,31.738281,19.531250
2.180374,62.988281,28.320312,28.320312,40.039062
2.184281,28.320312,40.039062,31.250000,38.085938
2.188187,12.695312,42.968750,30.273438,21.484375
2.192093,31.250000,36.621094,29.785156,20.996094
2.195999,25.390625,32.714844,32.226562,27.832031
2.199906,55.664062,29.785156,33.691406,50.781250
2.203812,35.156250,35.644531,37.109375,52.246094
2.207718,22.460938,36.132812,38.574219,39.550781
2.211624,33.691406,37.597656,35.156250,33.691406
2.215531,25.878906,37.597656,31.738281,33.203125
2.219437,69.824219,26.855469,31.250000,54.199219
2.223343,51.269531,24.902344,39.062500,56.640625
2.227249,12.695312,29.296875,41.015625,40.527344
2.231156,28.808594,36.132812,39.550781,34.667969
2.235062,16.113281,40.527344,38.574219,29.296875
2.238968,43.457031,33.203125,34.667969,35.156250
2.242874,39.550781,37.597656,41.015625,36.621094
2.271158,22.949219,39.062500,41.503906,27.343750
2.275065,47.363281,36.132812,31.738281,32.226562
2.278971,20.019531,37.109375,35.156250,30.273438
2.282877,44.433594,29.785156,39.062500,36.132812
2.286783,44.921875,34.667969,39.062500,41.503906
2.290690,8.789062,40.527344,37.109375,28.320312
2.292182,14.648438,38.085938,34.667969,6.835938
2.294596,39.550781,34.667969,35.156250,29.785156
2.296088,28.808594,34.179688,32.226562,14.160156
2.298502,20.996094,31.738281,40.039062,22.460938
2.299994,57.617188,30.761719,35.156250,32.226562
2.302408,28.320312,25.878906,41.015625,16.113281
2.303900,21.484375,33.691406,41.992188,31.738281
2.306315,44.921875,21.972656,38.574219,35.156250
2.307807,28.320312,33.203125,41.503906,28.320312
2.310221,18.554688,30.273438,41.015625,41.992188
2.311713,20.019531,37.109375,37.597656,14.648438
2.314127,32.714844,36.621094,39.550781,23.925781
2.315619,16.113281,33.691406,33.203125,12.207031
2.319525,52.246094,27.832031,35.644531,41.992188
2.323432,25.390625,33.691406,41.992188,38.574219
2.327338,26.367188,36.621094,38.574219,21.484375
2.331244,20.996094,34.179688,33.203125,17.578125
2.335150,19.531250,29.785156,35.644531,23.925781
2.363791,49.316406,23.925781,36.132812,41.992188
2.367697,19.531250,26.367188,35.644531,41.503906
2.371603,26.367188,27.343750,41.015625,37.597656
2.375510,34.667969,28.808594,36.621094,36.621094
2.379416,22.949219,32.226562,28.320312,22.949219
2.383322,59.570312,27.832031,25.878906,40.039062
2.385137,32.226562,32.226562,31.738281,48.339844
2.387228,39.550781,27.343750,36.132812,49.804688
2.389043,41.992188,23.437500,37.597656,36.132812
2.391135,34.667969,28.320312,42.480469,42.968750
2.392949,26.855469,18.554688,41.992188,29.785156
2.395041,33.691406,29.296875,37.597656,34.179688
2.396855,63.964844,20.019531,37.109375,41.015625
2.398947,14.648438,29.785156,34.667969,21.972656
2.400762,56.152344,33.203125,36.621094,41.992188
2.402853,54.687500,28.808594,32.714844,34.179688
2.404668,17.578125,35.644531,35.644531,34.179688
2.406760,46.875000,32.714844,32.226562,51.757812
2.408574,37.597656,35.644531,36.132812,30.273438
2.412480,25.390625,41.015625,39.550781,24.414062
2.416387,45.898438,35.156250,35.644531,30.273438
2.420293,45.410156,36.132812,34.667969,32.226562
2.424199,11.718750,35.644531,40.039062,28.808594
2.428105,37.109375,29.296875,42.480469,31.250000
2.457037,21.484375,26.855469,39.062500,20.507812
2.460943,30.273438,25.878906,34.667969,16.601562
2.464850,44.921875,27.343750,36.621094,34.667969
2.468756,19.042969,28.320312,43.945312,28.320312
2.472662,43.457031,29.296875,43.945312,18.554688
2.476568,19.531250,30.273438,40.527344,12.207031
2.480475,17.089844,24.414062,37.597656,14.648438
2.481773,41.503906,31.738281,31.250000,29.785156
2.484381,43.945312,23.925781,37.597656,40.527344
2.485680,10.253906,40.039062,35.156250,28.808594
2.488287,6.835938,28.320312,42.480469,39.062500
2.489586,18.554688,37.109375,35.156250,30.273438
2.492193,18.066406,27.832031,42.968750,30.761719
2.493492,15.625000,32.226562,36.132812,27.343750
2.496100,16.113281,30.761719,41.015625,21.972656
2.497398,7.324219,23.925781,40.039062,22.460938
2.500006,16.113281,28.808594,35.156250,14.160156
2.501305,57.617188,21.972656,41.992188,42.968750
2.505211,29.785156,35.156250,42.968750,41.503906
2.509117,15.136719,36.621094,40.527344,23.437500
2.513023,20.019531,36.621094,39.062500,19.531250
2.516930,15.625000,34.179688,37.109375,18.066406
2.520836,55.664062,24.414062,38.574219,37.109375
2.524742,26.367188,28.808594,43.457031,49.804688
2.528648,4.882812,34.179688,39.550781,29.296875
2.532555,11.718750,33.691406,38.085938,20.996094
2.536461,4.394531,32.226562,36.621094,20.507812
2.540367,47.851562,24.902344,36.132812,36.621094
2.544273,32.226562,31.738281,40.039062,46.875000
2.548180,5.371094,40.039062,36.621094,31.250000
2.552086,21.972656,37.597656,32.226562,21.972656
2.555992,25.878906,36.621094,31.250000,21.484375
2.559898,56.152344,31.738281,33.691406,49.316406
2.563805,34.667969,30.273438,39.062500,48.828125
2.567711,17.578125,36.621094,40.527344,27.343750
2.571617,38.085938,38.085938,37.109375,29.785156
2.600203,19.042969,34.667969,37.597656,30.273438
2.604109,42.968750,29.785156,36.621094,41.503906
2.608015,43.457031,30.273438,38.085938,44.433594
2.611922,13.183594,33.203125,40.527344,30.273438
2.615828,27.832031,40.527344,37.597656,20.996094
2.619734,26.855469,49.804688,35.156250,18.554688
2.620962,56.640625,36.621094,37.109375,40.039062
2.623640,49.316406,40.039062,35.644531,35.644531
2.624869,32.226562,39.062500,43.457031,46.386719
2.627547,42.480469,35.156250,40.039062,49.804688
2.628775,42.480469,41.015625,42.480469,41.992188
2.631453,16.113281,46.875000,39.550781,37.109375
2.632681,21.972656,45.898438,40.039062,21.972656
2.635359,34.179688,42.968750,37.109375,26.855469
2.636587,31.738281,44.433594,34.667969,15.625000
2.639265,17.089844,38.085938,32.226562,25.390625
2.640494,62.500000,41.503906,33.203125,44.921875
2.643172,32.226562,38.574219,29.785156,27.343750
2.644400,27.343750,42.968750,41.015625,48.339844
2.648306,46.875000,38.085938,46.386719,42.480469
2.652212,36.621094,33.691406,45.898438,35.156250
2.656119,19.042969,31.250000,41.503906,25.878906
2.660025,55.175781,32.714844,40.527344,51.269531
2.663931,26.367188,44.433594,45.898438,56.152344
2.692347,32.714844,51.269531,41.992188,38.085938
2.696253,40.039062,46.875000,41.503906,28.808594
2.700159,31.738281,36.621094,44.433594,37.109375
2.704065,64.453125,30.761719,43.945312,57.617188
2.707972,37.597656,41.015625,45.410156,51.269531
2.711878,38.574219,44.433594,43.945312,41.503906
2.713209,35.644531,47.363281,44.921875,35.156250
2.715784,45.898438,44.433594,43.945312,42.968750
2.717115,61.523438,45.410156,40.039062,37.109375
2.719690,29.785156,44.433594,44.921875,43.457031
2.721021,39.062500,51.269531,43.457031,43.457031
2.723597,69.824219,42.968750,45.410156,71.289062
2.724928,34.667969,56.152344,43.945312,41.015625
2.727503,50.292969,50.781250,47.851562,74.218750
2.728834,58.593750,46.386719,43.945312,34.667969
2.731409,29.785156,49.804688,45.898438,40.039062
2.732740,27.832031,41.503906,48.828125,31.738281
2.735315,41.992188,44.921875,45.410156,38.085938
2.736646,51.757812,41.503906,44.921875,47.363281
2.740553,52.734375,45.410156,43.457031,57.617188
2.744459,25.390625,44.921875,44.433594,49.804688
2.748365,50.292969,40.527344,48.339844,47.851562
2.752271,35.644531,41.503906,48.339844,41.015625
2.756178,56.640625,40.039062,41.503906,42.480469
2.784706,62.988281,43.945312,42.480469,51.269531
2.788612,29.785156,47.363281,45.898438,45.898438
2.792518,42.968750,37.109375,45.898438,41.015625
2.796425,32.714844,32.226562,46.386719,37.109375
2.800331,50.781250,37.109375,40.039062,40.039062
2.804237,60.058594,45.410156,36.621094,50.781250
2.808143,32.226562,54.199219,39.550781,44.433594
2.809801,39.062500,41.992188,37.597656,39.062500
2.812050,49.804688,51.269531,38.574219,36.621094
2.813707,29.296875,43.945312,37.109375,31.738281
2.815956,35.644531,45.898438,38.085938,37.597656
2.817614,24.902344,43.457031,33.691406,28.808594
2.819862,43.457031,37.597656,38.085938,43.945312
2.821520,63.476562,35.644531,33.691406,43.457031
2.823768,69.824219,37.109375,38.574219,67.871094
2.825426,36.132812,40.039062,38.085938,46.875000
2.827675,34.179688,43.945312,39.062500,58.593750
2.829332,30.761719,49.316406,36.621094,36.621094
2.833239,24.902344,51.269531,34.179688,24.902344
2.837145,18.554688,45.898438,29.296875,17.089844
2.841051,61.523438,44.433594,28.808594,30.273438
2.844957,37.597656,43.945312,35.644531,44.433594
2.848864,37.109375,40.039062,37.597656,44.921875
2.852770,44.433594,43.945312,35.156250,39.062500
2.856676,32.714844,44.433594,28.320312,31.250000
2.860582,71.777344,38.574219,24.902344,49.316406
2.864489,53.222656,36.132812,34.667969,62.988281
2.868395,56.640625,39.062500,39.550781,65.917969
2.872301,52.734375,45.410156,35.644531,58.105469
2.876207,18.554688,43.945312,33.691406,32.714844
2.880114,58.593750,35.156250,29.296875,39.550781
2.884020,48.828125,35.156250,33.203125,60.546875
2.887926,35.156250,37.109375,37.597656,54.687500
2.891832,43.945312,40.527344,32.226562,34.667969
2.895739,17.578125,40.527344,27.832031,18.066406
2.899645,46.386719,31.738281,24.902344,30.273438
2.928744,44.433594,29.296875,30.273438,46.875000
2.932650,29.296875,30.273438,32.226562,41.015625
2.936556,41.015625,33.691406,28.320312,26.855469
2.940462,11.230469,42.968750,28.320312,10.742188
2.944369,36.132812,44.433594,21.972656,17.089844
2.948275,50.292969,36.132812,20.507812,32.714844
2.949912,36.132812,30.273438,29.296875,24.902344
2.952181,24.414062,34.667969,29.785156,34.179688
2.953818,20.996094,24.902344,26.367188,13.671875
2.956087,40.527344,36.621094,33.691406,36.621094
2.957725,22.949219,25.878906,26.855469,18.554688
2.959994,22.460938,35.644531,32.714844,19.531250
2.961631,49.804688,28.808594,25.878906,35.644531
2.963900,33.691406,30.761719,26.855469,18.554688
2.965537,19.042969,34.667969,31.250000,37.597656
2.967806,47.363281,28.808594,26.855469,33.691406
2.969443,27.343750,39.550781,34.179688,32.226562
2.971712,15.625000,34.179688,32.226562,31.738281
2.973350,18.554688,41.503906,32.226562,21.484375
2.977256,25.390625,36.132812,26.855469,19.042969
2.981162,55.664062,31.738281,26.367188,36.132812
2.985068,26.367188,38.085938,30.761719,41.503906
2.988975,37.109375,38.085938,31.250000,30.761719
2.992881,20.019531,32.714844,35.644531,18.554688
3.021418,20.019531,28.320312,34.179688,23.437500
3.025324,59.082031,28.808594,28.320312,44.921875
3.029230,17.089844,37.597656,28.808594,37.597656
3.033136,20.507812,36.621094,32.226562,29.296875
3.037043,26.855469,33.691406,33.691406,23.437500
3.040949,13.671875,31.250000,31.738281,16.601562
3.042293,33.203125,34.179688,33.691406,37.109375
3.044855,55.664062,27.343750,28.808594,35.156250
3.046199,12.695312,39.550781,32.226562,25.390625
3.048761,31.738281,33.203125,32.226562,46.875000
3.050105,35.644531,36.621094,35.156250,31.250000
3.052668,17.089844,36.132812,36.621094,36.621094
3.054012,27.343750,34.667969,37.597656,27.832031
3.056574,28.320312,34.667969,35.156250,17.089844
3.057918,54.199219,26.855469,34.179688,35.644531
3.060480,12.695312,31.738281,36.621094,13.183594
3.061824,37.109375,27.832031,36.621094,48.339844
3.064386,53.710938,27.832031,36.621094,37.597656
3.065730,18.066406,33.203125,38.085938,41.015625
3.069637,34.179688,32.714844,34.179688,27.832031
3.073543,12.207031,33.203125,31.250000,13.671875
3.077449,44.921875,27.832031,25.390625,19.042969
3.081355,49.316406,27.832031,29.296875,41.015625
3.085262,21.484375,30.273438,36.132812,43.945312
3.113945,29.785156,26.367188,38.574219,34.179688
3.117852,9.277344,25.878906,38.574219,18.066406
3.121758,36.621094,25.390625,35.644531,29.296875
3.125664,53.222656,26.855469,37.109375,56.152344
3.129570,27.832031,32.714844,43.457031,52.734375
3.133477,36.132812,34.179688,41.503906,33.203125
3.135078,17.089844,35.156250,33.691406,11.230469
3.137383,19.042969,35.644531,37.597656,26.855469
3.138985,51.757812,37.597656,33.203125,35.644531
3.141289,34.179688,25.878906,37.109375,42.480469
3.142891,21.972656,41.503906,37.597656,33.691406
3.145195,42.968750,20.996094,37.597656,47.363281
3.146797,29.296875,40.527344,37.597656,22.949219
3.149102,5.371094,26.855469,42.968750,40.527344
3.150703,19.042969,41.503906,35.644531,13.183594
3.153008,19.531250,26.855469,40.527344,34.179688
3.154610,24.414062,38.085938,35.156250,19.531250
3.156914,4.882812,30.761719,36.132812,11.230469
3.158516,56.640625,28.808594,39.062500,38.574219
3.162422,26.367188,28.320312,47.363281,41.503906
3.166328,34.667969,26.855469,44.433594,34.179688
3.170235,30.273438,31.738281,39.062500,20.996094
3.174141,24.902344,38.085938,33.691406,18.066406
3.178047,63.476562,41.015625,28.808594,40.527344
3.207124,38.085938,37.109375,36.132812,49.316406
3.211030,38.574219,32.714844,42.480469,41.992188
3.214936,45.898438,41.015625,43.457031,35.156250
3.218842,21.972656,40.527344,38.085938,17.089844
3.222749,54.687500,32.226562,33.691406,23.925781
3.226655,35.156250,33.691406,38.085938,42.968750
3.230561,22.949219,27.343750,42.968750,39.550781
3.232219,50.292969,34.179688,44.433594,42.968750
3.234467,39.550781,24.414062,43.457031,35.644531
3.236125,24.902344,29.785156,44.433594,40.039062
3.238374,24.902344,31.250000,38.574219,28.808594
3.240032,60.058594,25.390625,40.527344,52.734375
3.242280,48.339844,30.273438,30.761719,28.808594
3.243938,59.570312,31.738281,43.457031,65.429688
3.246186,38.574219,36.621094,32.226562,45.410156
3.247844,26.855469,34.179688,43.945312,55.175781
3.250092,37.597656,41.015625,39.062500,47.851562
3.251750,35.156250,31.250000,39.550781,49.804688
3.255657,25.878906,33.691406,39.062500,43.457031
3.259563,58.105469,28.808594,39.062500,51.269531
3.263469,62.988281,29.296875,44.433594,63.964844
3.267375,32.714844,35.156250,45.898438,43.945312
3.271282,49.316406,38.085938,37.597656,35.644531
3.275188,33.203125,39.550781,34.179688,27.343750
3.279094,43.457031,32.714844,35.156250,31.738281
3.283000,56.152344,28.808594,37.597656,49.316406
3.286907,25.878906,35.644531,40.039062,40.039062
3.290813,40.527344,37.597656,38.574219,43.945312
3.294719,33.203125,39.062500,40.527344,37.597656
3.298625,41.503906,36.621094,41.015625,30.273438
3.302532,59.570312,37.109375,34.179688,45.410156
3.306438,24.414062,41.503906,28.808594,37.109375
3.310344,40.039062,34.667969,32.714844,31.738281
3.314250,31.250000,24.414062,38.574219,31.250000
3.318157,35.156250,21.972656,35.644531,35.644531
3.322063,62.011719,27.832031,32.714844,46.875000
3.350638,20.507812,40.039062,38.085938,39.062500
3.354544,22.949219,44.921875,37.597656,29.785156
3.358450,19.531250,36.132812,36.132812,22.949219
3.362356,22.949219,27.343750,35.644531,20.996094
3.366263,65.429688,27.832031,34.667969,40.039062
3.370169,32.714844,36.621094,38.574219,47.851562
3.371597,21.484375,35.644531,39.550781,27.343750
3.374075,27.832031,42.968750,36.132812,34.667969
3.375504,13.183594,30.273438,38.574219,20.019531
3.377981,28.808594,45.410156,36.621094,21.484375
3.379410,53.222656,24.414062,35.644531,40.039062
3.381888,13.183594,40.039062,36.621094,20.996094
3.383316,33.691406,34.667969,34.667969,37.597656
3.385794,56.152344,33.203125,34.179688,40.527344
3.387222,19.042969,39.550781,34.667969,33.203125
3.389700,41.503906,34.667969,39.550781,51.269531
3.391129,31.250000,36.132812,40.527344,44.433594
3.393606,21.484375,35.156250,41.503906,46.386719
3.395035,4.394531,27.343750,43.457031,35.644531
3.398941,41.015625,20.996094,40.527344,47.363281
3.402847,35.156250,32.226562,41.015625,60.546875
3.406754,6.347656,33.203125,36.621094,35.156250
3.410660,30.273438,27.343750,33.691406,20.996094
3.414566,10.253906,29.785156,36.132812,15.625000
3.442822,30.273438,25.878906,33.203125,25.878906
3.446728,30.761719,22.949219,35.644531,36.132812
3.450634,15.136719,26.855469,39.550781,35.644531
3.454541,33.691406,29.296875,36.132812,29.296875
3.458447,6.835938,29.785156,32.226562,17.578125
3.462353,38.574219,26.855469,29.785156,26.855469
3.464046,42.480469,38.085938,41.015625,56.640625
3.466259,59.082031,30.761719,32.714844,43.945312
3.467952,57.128906,41.503906,38.574219,40.039062
3.470166,22.949219,39.062500,40.039062,43.457031
3.471858,32.226562,40.527344,37.597656,36.132812
3.474072,45.898438,42.968750,38.574219,38.574219
3.475765,42.480469,35.156250,36.621094,32.714844
3.477978,41.503906,44.921875,34.667969,31.738281
3.479671,74.218750,33.203125,36.621094,37.109375
3.481884,46.875000,40.039062,34.179688,27.832031
3.483577,34.179688,39.062500,37.597656,32.226562
3.485791,61.035156,34.667969,37.109375,51.757812
3.487483,45.410156,38.574219,33.203125,22.460938
3.491390,41.503906,37.109375,32.714844,24.414062
3.495296,40.527344,32.714844,29.296875,24.414062
3.499202,76.660156,31.738281,27.832031,41.992188
3.503108,33.691406,37.597656,32.226562,45.410156
3.507015,29.296875,41.015625,34.667969,35.156250
3.535595,27.832031,42.480469,35.156250,26.367188
3.539502,23.925781,40.039062,32.226562,28.320312
3.543408,64.941406,37.109375,27.343750,41.015625
3.547314,34.179688,41.503906,26.855469,31.250000
3.551220,35.156250,43.457031,29.296875,31.250000
3.555127,36.132812,39.062500,30.761719,36.621094
3.556351,55.175781,37.109375,31.250000,29.785156
3.559033,22.460938,35.156250,34.179688,25.390625
3.560258,28.320312,43.945312,31.250000,38.574219
3.562939,56.152344,33.691406,36.132812,31.738281
3.564164,13.183594,47.363281,30.761719,32.226562
3.566845,30.761719,42.480469,38.574219,46.386719
3.568070,31.250000,43.457031,30.761719,20.996094
3.570752,16.113281,44.433594,39.062500,33.691406
3.571976,12.695312,39.062500,34.667969,19.531250
3.574658,21.484375,32.714844,36.132812,20.507812
3.575883,45.898438,37.109375,31.738281,26.855469
3.578564,19.531250,31.250000,36.132812,23.437500
3.579789,44.433594,40.039062,31.250000,34.179688
3.583695,20.996094,41.503906,32.226562,28.320312
3.587601,35.156250,37.597656,36.132812,28.808594
3.591508,16.601562,36.621094,39.062500,29.296875
3.595414,40.527344,38.085938,32.714844,32.714844
3.599320,42.480469,39.062500,30.273438,32.714844
3.627910,11.718750,41.992188,32.714844,20.507812
3.631817,32.226562,40.527344,30.761719,22.460938
3.635723,15.625000,38.085938,32.714844,26.855469
3.639629,34.179688,31.738281,31.738281,25.878906
3.643535,55.664062,32.714844,29.296875,46.875000
3.647442,21.972656,40.527344,31.738281,49.804688
3.651348,42.480469,40.039062,32.714844,35.156250
3.652560,34.667969,44.921875,32.714844,34.179688
3.655254,31.250000,36.132812,36.132812,27.832031
3.656467,41.503906,42.480469,34.179688,35.644531
3.659160,44.433594,32.226562,37.109375,43.945312
3.660373,70.312500,34.667969,34.179688,44.433594
3.663067,76.660156,35.644531,35.156250,58.593750
3.664279,37.109375,39.062500,39.550781,49.804688
3.666973,33.691406,46.875000,37.109375,40.039062
3.668185,46.386719,42.968750,37.109375,54.199219
3.670879,41.015625,46.875000,33.691406,32.714844
3.672092,34.667969,40.039062,35.156250,32.226562
3.675998,23.925781,35.156250,30.273438,15.625000
3.679904,62.988281,37.109375,23.925781,46.386719
3.683810,27.343750,40.527344,32.714844,48.828125
3.687717,25.390625,35.644531,40.039062,34.667969
3.691623,38.085938,35.644531,39.550781,28.320312
3.695529,22.460938,36.621094,36.132812,16.113281
3.699435,53.222656,38.574219,28.808594,25.878906
3.703342,32.226562,42.480469,31.250000,36.132812
3.707248,18.554688,41.503906,35.644531,34.179688
3.711154,30.761719,38.085938,37.109375,28.320312
3.715060,10.253906,34.667969,38.085938,17.089844
3.718967,31.250000,29.296875,34.667969,28.808594
3.722873,17.089844,35.156250,36.132812,41.992188
3.726779,-1.464844,34.667969,39.062500,34.667969
3.730685,13.183594,31.738281,38.085938,28.808594
3.734592,5.859375,36.132812,34.179688,13.183594
3.738498,43.945312,34.667969,26.367188,28.808594
3.742404,46.875000,34.667969,31.738281,56.152344
3.771388,19.531250,35.156250,38.085938,38.085938
3.775294,29.785156,30.761719,37.109375,28.320312
3.779200,19.531250,35.156250,39.062500,34.179688
3.783106,54.687500,36.621094,38.574219,41.992188
3.787013,52.734375,35.156250,40.039062,60.058594
3.790919,22.460938,27.343750,42.968750,62.011719
3.792316,18.066406,27.343750,43.457031,34.667969
3.794825,41.992188,20.507812,42.968750,58.105469
3.796222,30.273438,25.390625,35.644531,31.738281
3.798731,21.972656,31.738281,41.015625,41.503906
3.800128,53.710938,25.390625,37.597656,45.410156
3.802638,35.644531,36.621094,34.667969,31.250000
3.804034,12.695312,30.761719,41.992188,47.363281
3.806544,57.128906,36.132812,33.203125,44.921875
3.807941,23.437500,34.179688,39.062500,41.992188
3.810450,24.414062,35.644531,37.597656,45.410156
3.811847,12.695312,33.691406,40.527344,29.785156
3.814356,33.691406,30.273438,42.480469,43.457031
3.815753,13.671875,24.902344,41.992188,37.597656
3.819659,45.898438,21.972656,41.992188,65.429688
3.823566,14.648438,32.714844,39.550781,44.921875
3.827472,13.671875,34.667969,31.250000,20.996094
3.831378,14.648438,35.156250,32.226562,20.507812
3.835284,14.160156,32.226562,36.132812,21.972656
3.864547,46.386719,25.390625,38.574219,47.363281
3.868454,24.414062,32.714844,40.527344,49.804688
3.872360,14.648438,38.085938,36.132812,33.203125
3.876266,13.671875,30.761719,33.203125,26.367188
3.880172,15.625000,29.296875,29.296875,22.460938
3.884079,52.734375,36.621094,26.367188,37.109375
3.885516,17.578125,37.597656,31.738281,33.203125
3.887985,27.343750,43.945312,32.226562,39.550781
3.889422,35.644531,39.062500,31.738281,28.808594
3.891891,20.996094,44.433594,35.156250,27.343750
3.893328,16.601562,36.621094,34.667969,30.761719
3.895797,33.691406,37.597656,34.179688,25.390625
3.897235,54.199219,32.226562,30.273438,41.503906
3.899704,17.578125,34.667969,32.714844,27.343750
3.901141,56.640625,37.109375,28.808594,41.503906
3.903610,48.339844,31.738281,27.832031,45.410156
3.905047,26.367188,39.062500,29.785156,35.644531
3.907516,31.250000,35.156250,29.296875,51.269531
3.908953,26.367188,34.667969,29.296875,29.296875
3.912860,3.417969,33.203125,28.320312,8.789062
3.916766,40.527344,32.226562,27.343750,21.972656
3.920672,51.269531,34.179688,35.156250,44.921875
3.924578,17.578125,35.644531,35.644531,35.156250
3.928485,32.226562,34.179688,33.203125,23.437500
3.958269,16.113281,37.597656,37.109375,12.695312
3.962176,30.273438,28.808594,33.203125,18.066406
3.966082,40.527344,27.832031,30.273438,35.156250
3.969988,14.160156,36.132812,35.156250,31.738281
3.973894,26.855469,33.203125,36.132812,25.390625
3.977801,0.488281,36.621094,32.714844,15.136719
3.981707,8.300781,32.226562,29.296875,12.207031
3.983310,45.898438,26.367188,32.714844,34.667969
3.985613,33.203125,26.855469,30.761719,27.832031
3.987216,15.136719,32.714844,35.156250,33.203125
3.989519,6.347656,32.714844,33.691406,32.226562
3.991123,20.507812,31.738281,36.132812,22.949219
3.993426,16.601562,36.132812,34.179688,27.832031
3.995029,15.625000,27.343750,37.597656,12.695312
3.997332,7.812500,36.132812,31.738281,15.625000
3.998935,9.277344,26.367188,31.738281,3.417969
4.001238,17.089844,30.761719,29.785156,11.718750
4.002841,44.433594,27.832031,28.808594,25.878906
4.006748,22.460938,37.597656,33.203125,32.226562
4.010654,23.437500,42.480469,29.296875,17.578125
4.014560,23.437500,42.968750,28.808594,10.253906
4.018466,17.089844,38.085938,27.832031,7.812500
4.022373,49.804688,30.761719,28.320312,28.320312
4.026279,21.972656,29.785156,36.132812,41.503906
4.030185,24.902344,27.832031,34.667969,33.203125
4.034091,32.714844,28.320312,34.179688,16.601562
4.037998,14.648438,36.132812,32.714844,9.765625
4.041904,47.363281,40.039062,24.414062,19.531250
4.045810,30.273438,45.410156,28.808594,30.761719
4.049716,19.531250,45.410156,31.738281,28.808594
4.053623,26.855469,39.550781,30.761719,20.996094
4.057529,12.207031,36.621094,33.203125,13.183594
4.061435,40.527344,33.203125,30.761719,19.042969
4.065341,24.902344,34.667969,31.250000,30.273438
4.069248,8.789062,31.250000,32.226562,23.437500
4.073154,24.902344,24.414062,36.132812,27.832031
4.102207,7.812500,26.367188,35.156250,24.414062
4.106114,26.855469,27.343750,30.273438,27.832031
4.110020,32.226562,29.296875,31.738281,34.179688
4.113926,14.648438,33.203125,32.714844,28.808594
4.117832,26.855469,34.179688,35.644531,33.203125
4.121739,8.300781,32.714844,39.062500,17.089844
4.123527,51.757812,30.273438,34.667969,47.851562
4.125645,31.738281,25.390625,36.132812,27.343750
4.127434,28.320312,37.109375,38.085938,46.386719
4.129551,35.156250,29.296875,40.039062,48.339844
4.131340,43.945312,40.527344,37.597656,42.968750
4.133457,8.300781,40.527344,42.480469,41.503906
4.135246,18.554688,41.503906,33.691406,19.531250
4.137364,30.761719,36.621094,35.644531,32.226562
4.139152,27.343750,42.968750,32.714844,10.253906
4.141270,15.625000,33.691406,33.691406,14.648438
4.143059,48.339844,42.480469,31.738281,34.179688
4.145176,37.597656,32.714844,34.179688,25.878906
4.146965,20.507812,38.574219,35.156250,37.597656
4.150871,34.179688,32.226562,42.968750,38.574219
4.154777,25.390625,33.203125,42.480469,30.273438
4.158684,30.761719,32.226562,36.621094,21.484375
4.162590,61.035156,30.761719,34.667969,47.851562
4.166496,32.226562,35.644531,39.062500,57.128906
4.195443,40.039062,35.644531,38.574219,51.757812
4.199349,45.410156,37.109375,36.621094,43.945312
4.203256,42.968750,39.550781,33.203125,33.691406
4.207162,68.847656,31.738281,31.250000,48.339844
4.211068,39.062500,27.832031,40.527344,58.105469
4.214974,36.621094,31.738281,42.968750,47.363281
4.216974,15.136719,40.039062,37.597656,23.437500
4.218881,41.015625,28.320312,41.015625,38.085938
4.220880,60.058594,42.480469,32.714844,49.804688
4.222787,21.484375,21.972656,38.085938,25.390625
4.224786,42.968750,43.945312,26.855469,52.246094
4.226693,63.476562,20.019531,29.785156,38.085938
4.228693,24.902344,43.945312,26.855469,32.226562
4.230599,53.222656,20.996094,32.714844,50.781250
4.232599,51.269531,38.574219,28.320312,34.179688
4.234506,33.691406,17.089844,39.062500,44.433594
4.236505,22.949219,31.738281,31.738281,27.832031
4.238412,32.226562,20.996094,36.621094,31.738281
4.240411,42.480469,23.437500,29.785156,30.273438
4.244318,36.621094,24.902344,32.226562,39.550781
4.248224,14.648438,27.832031,32.226562,33.203125
4.252130,37.597656,28.320312,27.343750,27.343750
4.256036,11.230469,32.226562,28.320312,24.414062
4.259943,31.738281,35.644531,27.832031,22.949219
4.288511,51.269531,34.667969,28.320312,38.085938
4.292418,32.226562,33.203125,31.738281,38.574219
4.296324,46.875000,31.738281,32.714844,31.250000
4.300230,19.042969,31.738281,35.644531,26.855469
4.304136,38.574219,30.761719,30.273438,23.925781
4.308043,57.128906,28.808594,28.808594,42.480469
4.309171,60.546875,32.226562,33.691406,40.527344
4.311949,16.113281,29.296875,35.644531,38.085938
4.313078,41.992188,31.250000,35.644531,38.574219
4.315855,37.597656,24.902344,37.109375,33.691406
4.316984,37.109375,27.343750,36.621094,46.386719
4.319761,28.808594,28.808594,36.621094,28.320312
4.320890,70.800781,30.273438,33.203125,49.804688
4.323668,39.062500,29.785156,34.179688,24.902344
4.324796,38.085938,38.574219,32.714844,39.062500
4.327574,59.082031,26.855469,33.691406,48.339844
4.328703,52.734375,34.667969,32.714844,39.062500
4.331480,36.621094,31.738281,36.621094,49.804688
4.332609,40.039062,28.808594,38.085938,41.992188
4.336515,37.597656,28.320312,36.132812,32.714844
4.340421,75.195312,30.761719,29.296875,38.574219
4.344328,32.714844,35.644531,34.667969,44.921875
4.348234,35.644531,37.109375,32.226562,38.085938
4.352140,31.738281,36.132812,28.808594,22.460938
4.380510,11.230469,32.714844,28.808594,7.324219
4.384416,56.640625,25.390625,30.273438,34.179688
4.388322,25.390625,31.250000,32.226562,41.992188
4.392229,5.859375,37.597656,29.785156,26.855469
4.396135,21.972656,37.109375,30.273438,21.484375
4.400041,11.230469,34.667969,30.273438,17.578125
4.401418,39.062500,33.691406,35.156250,43.945312
4.403947,46.875000,23.437500,30.273438,33.691406
4.405324,24.414062,34.179688,44.921875,35.156250
4.407854,28.320312,20.996094,36.621094,43.945312
4.409230,42.968750,37.597656,41.015625,29.785156
4.411760,18.554688,35.156250,37.597656,43.945312
4.413136,25.390625,40.527344,34.179688,19.531250
4.415666,25.878906,43.945312,34.667969,21.484375
4.417043,47.363281,36.621094,29.785156,25.878906
4.419572,7.812500,42.968750,36.132812,0.976562
4.420949,38.085938,37.597656,31.738281,39.550781
4.423479,46.875000,38.085938,31.738281,22.949219
4.424855,24.902344,32.714844,37.109375,33.203125
4.428761,49.316406,28.320312,35.644531,37.597656
4.432668,20.019531,37.597656,36.132812,25.878906
4.436574,40.527344,38.085938,33.203125,17.089844
4.440480,51.757812,37.597656,32.714844,32.226562
4.444386,17.578125,35.156250,38.574219,39.550781
4.473421,47.363281,29.296875,40.527344,44.921875
4.477327,23.437500,35.644531,38.574219,31.738281
4.481234,23.925781,31.250000,35.156250,15.136719
4.485140,48.339844,27.343750,33.203125,38.085938
4.489046,23.925781,37.597656,34.179688,41.015625
4.492952,35.156250,32.226562,39.550781,36.621094
4.494579,23.925781,39.062500,38.574219,30.273438
4.496859,26.367188,35.644531,39.062500,39.062500
4.498485,49.804688,35.644531,29.296875,38.574219
4.500765,30.761719,40.527344,33.203125,29.296875
4.502391,33.203125,37.597656,31.250000,39.550781
4.504671,40.527344,36.621094,30.273438,36.621094
4.506297,41.503906,40.527344,33.691406,40.039062
4.508577,16.601562,42.480469,32.226562,38.574219
4.510204,28.808594,39.550781,35.156250,39.550781
4.512484,38.085938,38.574219,32.714844,32.714844
4.514110,24.902344,36.132812,32.226562,31.738281
4.516390,27.343750,35.644531,38.085938,32.226562
4.518016,72.753906,35.644531,26.855469,47.363281
4.521922,43.457031,45.898438,30.273438,53.710938
4.525829,39.062500,49.804688,29.785156,45.410156
4.529735,59.570312,45.410156,26.367188,34.667969
4.533641,40.039062,41.015625,25.878906,24.414062
4.537547,75.683594,38.574219,24.414062,43.945312
4.566642,52.246094,39.062500,25.878906,50.781250
4.570548,39.062500,38.574219,25.878906,44.433594
4.574454,57.617188,41.015625,23.925781,41.503906
4.578361,37.597656,42.968750,23.437500,31.738281
4.582267,67.871094,34.179688,20.996094,41.503906
4.586173,56.152344,33.203125,21.972656,61.035156
4.587439,55.175781,40.527344,28.320312,40.527344
4.590079,48.339844,41.015625,24.414062,49.804688
4.591345,27.832031,44.433594,30.273438,28.808594
4.593986,60.546875,49.316406,22.949219,39.550781
4.595251,43.457031,40.527344,27.343750,24.902344
4.597892,29.785156,51.269531,21.484375,33.203125
4.599158,48.339844,40.039062,25.390625,36.132812
4.601798,59.570312,42.968750,17.578125,37.109375
4.603064,26.367188,41.992188,27.343750,31.738281
4.605704,58.105469,44.433594,20.507812,54.687500
4.606970,53.710938,37.109375,27.343750,41.503906
4.609611,33.691406,43.457031,27.343750,50.292969
4.610876,28.808594,38.574219,26.855469,31.250000
4.614783,32.714844,33.203125,25.878906,13.183594
4.618689,53.710938,29.296875,27.343750,42.480469
4.622595,24.414062,32.226562,27.343750,46.875000
4.626501,43.457031,29.296875,27.343750,34.179688
4.630408,41.015625,32.714844,29.296875,37.109375
4.659343,44.433594,34.179688,26.855469,43.945312
4.663249,59.570312,24.902344,26.367188,48.339844
4.667155,30.273438,31.250000,26.855469,42.480469
4.671061,39.550781,40.527344,26.367188,38.574219
4.674968,25.390625,39.550781,26.367188,24.902344
4.678874,28.320312,37.109375,27.832031,25.878906
4.680197,37.109375,27.832031,34.179688,57.128906
4.682780,63.476562,32.226562,29.296875,46.875000
4.684104,42.968750,28.320312,36.621094,49.804688
4.686686,30.761719,37.597656,29.296875,34.667969
4.688010,49.316406,33.203125,39.062500,36.132812
4.690593,35.156250,36.132812,28.808594,23.925781
4.691916,40.527344,36.621094,36.621094,27.343750
4.694499,28.320312,36.132812,28.320312,22.949219
4.695822,77.636719,30.761719,36.621094,47.363281
4.698405,20.996094,35.156250,26.855469,16.601562
4.699729,50.781250,32.714844,41.015625,56.640625
4.702311,59.570312,25.878906,29.785156,39.550781
4.703635,38.085938,34.667969,41.503906,49.804688
4.707541,52.246094,29.296875,42.968750,48.828125
4.711447,36.132812,19.531250,41.015625,36.132812
4.715354,70.800781,18.066406,38.085938,54.199219
4.719260,62.988281,27.832031,42.968750,66.894531
4.723166,44.433594,40.039062,39.550781,54.199219
4.752253,63.476562,40.527344,39.550781,51.757812
4.756159,41.992188,29.296875,46.875000,37.109375
4.760065,72.753906,19.531250,46.386719,55.664062
4.763972,67.382812,23.925781,46.386719,62.988281
4.767878,30.273438,32.714844,43.457031,45.410156
4.771784,40.527344,37.597656,41.992188,39.062500
4.775690,22.949219,39.550781,42.968750,23.925781
4.779037,27.832031,35.644531,38.574219,27.832031
4.779597,56.640625,35.644531,38.085938,36.621094
4.782943,47.363281,35.644531,42.480469,38.574219
4.783503,60.058594,35.156250,41.503906,53.710938
4.786849,25.390625,37.109375,45.410156,38.085938
4.787409,25.390625,36.621094,47.851562,54.687500
4.790755,34.667969,34.179688,46.386719,42.968750
4.791315,39.550781,33.203125,44.921875,45.898438
4.794662,12.207031,36.621094,45.898438,26.855469
4.795222,13.671875,36.132812,40.527344,20.019531
4.798568,29.296875,37.109375,38.085938,29.296875
4.802474,62.500000,36.621094,36.621094,57.128906
4.806380,41.503906,39.062500,43.945312,59.082031
4.810287,54.687500,37.597656,46.386719,49.316406
4.814193,34.667969,37.597656,47.363281,34.179688
4.818099,44.921875,35.644531,41.503906,34.667969
4.822005,81.054688,34.667969,37.109375,58.105469
4.825912,43.945312,38.574219,40.039062,53.222656
4.829818,51.269531,38.574219,40.039062,44.433594
4.833724,45.898438,35.644531,41.992188,38.085938
4.837630,40.039062,30.273438,43.945312,35.644531
4.841537,72.265625,27.343750,44.433594,60.058594
4.845443,42.480469,36.621094,44.921875,57.617188
4.849349,37.109375,37.597656,42.480469,38.085938
4.853255,43.457031,28.808594,43.457031,36.621094
4.857162,32.226562,31.738281,39.062500,29.296875
4.861068,64.453125,36.621094,35.156250,46.386719
4.864974,44.921875,40.527344,43.945312,62.988281
4.868880,38.085938,41.015625,45.410156,49.804688
4.897495,44.921875,42.480469,40.039062,42.480469
4.901402,25.878906,40.527344,38.574219,27.832031
4.905308,54.687500,37.109375,34.667969,35.644531
4.909214,40.039062,44.921875,36.132812,44.921875
4.913120,28.320312,47.363281,38.085938,29.296875
4.917027,34.667969,34.667969,39.550781,26.367188
4.918548,30.761719,30.761719,29.785156,14.160156
4.920933,12.695312,29.785156,41.015625,22.949219
4.922455,37.109375,29.296875,35.644531,33.203125
4.924839,41.015625,34.667969,36.132812,29.296875
4.926361,5.371094,38.085938,39.062500,23.925781
4.928745,20.996094,38.574219,35.644531,30.273438
4.930267,15.136719,41.992188,33.691406,14.160156
4.932652,-7.324219,41.503906,39.062500,16.113281
4.934173,-9.277344,44.921875,30.761719,-1.464844
4.936558,22.460938,41.503906,38.574219,20.507812
4.938080,12.207031,39.062500,30.273438,10.253906
4.940464,4.394531,40.039062,32.714844,11.230469
4.941986,30.761719,35.156250,30.761719,38.085938
4.945892,9.277344,41.015625,33.203125,35.156250
4.949798,23.925781,42.480469,30.273438,20.996094
4.953705,3.417969,41.503906,28.808594,10.742188
4.957611,23.925781,36.621094,28.808594,16.601562
4.961517,47.851562,34.179688,31.738281,45.410156
4.991144,23.925781,39.550781,35.644531,47.851562
4.995050,49.316406,37.597656,33.691406,37.109375
4.998956,33.203125,37.597656,33.203125,31.250000
5.002863,33.691406,35.156250,30.761719,37.109375
5.006769,66.894531,39.550781,28.320312,53.222656
5.010675,39.550781,50.781250,31.250000,46.386719
5.014581,40.039062,45.898438,30.761719,29.296875
5.014699,27.832031,45.410156,25.878906,20.019531
5.018488,25.878906,44.433594,28.808594,24.902344
5.018605,24.902344,44.921875,23.437500,18.554688
5.022394,22.460938,38.085938,25.878906,20.996094
5.022511,55.664062,39.062500,21.972656,33.691406
5.026300,60.058594,33.203125,25.878906,30.761719
5.026417,28.320312,42.480469,23.437500,40.527344
5.030206,26.367188,43.945312,30.273438,35.644531
5.030324,36.132812,46.875000,23.925781,34.667969
5.034113,21.972656,45.410156,28.808594,25.390625
5.034230,42.480469,43.945312,26.855469,33.691406
5.038136,25.878906,36.132812,29.785156,33.691406
5.042042,66.406250,31.738281,28.808594,45.410156
5.045949,41.015625,39.062500,31.250000,53.710938
5.049855,22.949219,44.921875,30.761719,42.968750
5.053761,34.179688,45.410156,26.855469,18.554688
5.057667,18.066406,45.410156,25.878906,14.648438
5.086278,55.664062,38.085938,24.902344,35.156250
5.090184,44.433594,35.156250,33.691406,48.828125
5.094090,8.789062,35.156250,40.039062,39.550781
5.097997,18.066406,32.226562,34.179688,20.507812
5.101903,-0.976562,37.597656,31.250000,6.347656
5.105809,32.714844,38.085938,27.832031,22.460938
5.107176,19.531250,34.667969,36.132812,26.855469
5.109715,41.015625,41.503906,29.785156,43.945312
5.111083,24.902344,38.085938,40.039062,21.972656
5.113622,19.531250,43.457031,38.574219,46.875000
5.114989,7.324219,42.968750,37.597656,11.718750
5.117528,36.621094,40.527344,41.015625,37.597656
5.118895,34.667969,40.039062,33.203125,15.136719
5.121434,16.113281,40.039062,37.109375,23.925781
5.122801,49.804688,33.203125,38.085938,30.273438
5.125340,39.550781,28.320312,35.156250,35.156250
5.126708,2.441406,35.644531,45.898438,27.832031
5.129247,52.734375,26.367188,34.179688,38.574219
5.130614,23.925781,33.691406,42.968750,26.855469
5.134520,18.066406,31.738281,42.480469,20.019531
5.138426,24.902344,27.832031,44.433594,20.996094
5.142333,51.757812,23.437500,47.851562,46.386719
5.146239,19.042969,27.343750,53.222656,45.410156
5.150145,33.203125,25.878906,54.687500,39.062500
5.178875,28.320312,24.414062,55.175781,30.761719
5.182781,23.437500,23.925781,52.734375,21.484375
5.186687,55.175781,20.996094,51.757812,44.921875
5.190593,32.226562,22.460938,54.199219,49.804688
5.194500,38.574219,22.949219,51.757812,42.480469
5.198406,29.296875,24.414062,48.339844,28.320312
5.199980,43.945312,24.902344,34.667969,39.062500
5.202312,24.414062,24.414062,41.503906,20.507812
5.203887,35.644531,30.273438,41.015625,52.246094
5.206218,69.335938,22.949219,37.597656,48.339844
5.207793,20.507812,37.109375,41.503906,28.320312
5.210125,40.527344,23.925781,47.363281,49.316406
5.211699,19.042969,34.179688,39.062500,16.113281
5.214031,25.878906,20.507812,51.269531,40.039062
5.215605,4.394531,37.109375,39.062500,15.625000
5.217937,26.855469,25.878906,41.992188,27.832031
5.219512,41.015625,28.320312,36.132812,32.226562
5.221843,8.789062,30.273438,35.156250,11.718750
5.223418,22.460938,23.925781,40.039062,41.503906
5.227324,9.765625,34.667969,40.527344,35.644531
5.231230,30.273438,39.550781,38.085938,26.855469
5.235137,3.906250,42.968750,34.179688,8.789062
5.239043,37.597656,36.132812,31.250000,29.296875
5.242949,37.109375,32.226562,37.597656,51.757812
5.271770,23.437500,38.574219,37.109375,40.039062
5.275676,51.269531,43.945312,32.714844,37.109375
5.279582,27.832031,45.898438,32.714844,25.878906
5.283489,56.640625,42.480469,28.808594,35.644531
5.287395,66.894531,41.503906,29.296875,54.199219
5.291301,42.968750,46.386719,32.714844,49.316406
5.292486,45.410156,47.851562,28.808594,44.921875
5.295207,56.152344,46.875000,28.320312,38.085938
5.296392,46.875000,46.875000,27.343750,35.156250
5.299114,29.296875,41.992188,24.414062,33.203125
5.300298,71.777344,43.457031,24.414062,41.992188
5.303020,59.082031,33.691406,22.460938,47.363281
5.304204,32.226562,47.363281,23.925781,35.156250
5.306926,74.707031,32.226562,24.902344,63.476562
5.308111,39.550781,48.339844,21.972656,28.320312
5.310832,36.132812,33.691406,28.808594,48.339844
5.312017,29.296875,43.945312,19.042969,16.601562
5.314739,56.640625,39.062500,27.832031,45.410156
5.315923,29.296875,41.992188,16.601562,24.414062
5.319829,55.664062,43.457031,14.160156,35.156250
5.323736,17.089844,47.851562,18.066406,20.019531
5.327642,35.156250,48.828125,20.507812,20.019531
5.331548,35.644531,47.851562,22.949219,25.390625
5.335454,33.691406,42.968750,23.925781,26.855469
5.363608,61.035156,39.062500,19.042969,35.644531
5.367514,24.414062,43.457031,21.484375,33.691406
5.371421,31.738281,42.480469,25.390625,34.667969
5.375327,46.875000,44.433594,27.343750,29.785156
5.379233,35.156250,45.410156,24.414062,19.531250
5.383139,59.570312,40.039062,20.019531,33.691406
5.384647,28.808594,40.527344,27.343750,36.132812
5.387046,40.527344,46.875000,23.437500,35.644531
5.388554,37.109375,41.503906,27.343750,20.507812
5.390952,33.691406,48.828125,24.414062,26.367188
5.392460,24.902344,41.992188,23.437500,9.765625
5.394858,41.992188,43.457031,27.343750,26.367188
5.396366,59.082031,39.550781,18.554688,25.878906
5.398764,36.621094,43.457031,28.808594,23.437500
5.400272,47.851562,38.574219,24.414062,41.503906
5.402671,60.058594,38.574219,23.437500,37.597656
5.404179,27.832031,41.015625,28.808594,40.527344
5.406577,40.527344,37.109375,24.414062,45.898438
5.408085,40.039062,42.968750,28.808594,21.972656
5.411991,21.484375,41.503906,28.320312,11.718750
5.415897,54.687500,37.109375,20.019531,24.902344
5.419804,61.035156,45.898438,22.460938,38.574219
5.423710,30.273438,46.386719,31.738281,38.085938
5.427616,38.574219,40.039062,29.296875,34.667969
5.456026,21.484375,39.550781,26.855469,26.855469
5.459932,48.339844,34.179688,31.250000,33.203125
5.463839,56.640625,33.691406,38.574219,51.269531
5.467745,20.507812,34.179688,45.410156,48.339844
5.471651,43.945312,31.250000,43.945312,46.386719
5.475557,30.273438,34.179688,42.480469,33.203125
5.477079,51.269531,28.808594,52.734375,47.363281
5.479464,50.292969,30.273438,43.457031,36.621094
5.480985,18.554688,27.343750,60.058594,51.757812
5.483370,71.777344,23.437500,46.875000,52.734375
5.484892,37.109375,33.691406,59.082031,38.085938
5.487276,28.808594,21.972656,49.804688,49.316406
5.488798,28.320312,27.343750,57.617188,19.531250
5.491182,32.714844,25.390625,51.757812,45.410156
5.492704,19.531250,18.066406,56.152344,19.531250
5.495089,23.437500,34.667969,53.222656,31.738281
5.496610,51.269531,20.019531,55.664062,39.062500
5.498995,31.738281,39.550781,48.828125,29.296875
5.500517,18.066406,28.320312,58.593750,37.597656
5.504423,21.484375,23.925781,58.105469,26.855469
5.508329,20.019531,24.902344,61.035156,20.507812
5.512235,7.324219,23.437500,60.546875,14.648438
5.516142,44.921875,21.484375,59.082031,32.714844
5.520048,13.671875,22.949219,64.941406,37.109375
5.548812,0.976562,23.437500,65.429688,19.531250
5.552718,4.394531,22.460938,64.941406,4.394531
5.556625,-1.953125,17.089844,68.847656,8.789062
5.560531,44.433594,17.578125,65.429688,36.621094
5.564437,27.832031,28.808594,64.453125,42.480469
5.568343,16.113281,34.179688,63.964844,25.390625
5.572250,28.808594,29.296875,61.523438,23.925781
5.573565,26.367188,27.832031,53.222656,35.156250
5.576156,13.671875,23.437500,62.988281,22.949219
5.577472,64.453125,23.437500,46.386719,48.339844
5.580062,51.269531,18.554688,60.546875,35.156250
5.581378,63.476562,23.925781,45.898438,63.964844
5.583968,53.710938,22.949219,62.988281,62.500000
5.585284,35.156250,22.949219,50.781250,62.500000
5.587875,39.062500,25.390625,64.453125,54.687500
5.589190,43.457031,21.972656,50.292969,56.152344
5.591781,42.480469,23.437500,57.128906,36.621094
5.593097,21.484375,31.738281,49.316406,38.574219
5.597003,40.527344,29.785156,42.480469,37.109375
5.600909,49.804688,26.855469,41.503906,53.222656
5.604815,20.996094,34.667969,46.386719,49.804688
5.608722,31.738281,38.574219,46.875000,36.132812
5.612628,3.906250,35.156250,39.062500,18.066406
5.616534,21.972656,29.296875,29.296875,24.414062
5.620440,46.386719,31.250000,29.785156,44.433594
5.624347,7.812500,38.085938,30.761719,23.925781
5.628253,21.484375,36.132812,26.855469,10.742188
5.632159,7.324219,33.691406,26.855469,9.277344
5.636065,21.972656,30.273438,26.367188,18.554688
5.639972,53.222656,28.808594,25.878906,36.132812
5.643878,10.742188,32.714844,30.273438,28.808594
5.647784,21.484375,33.691406,29.296875,27.343750
5.651690,22.460938,41.015625,29.296875,18.066406
5.655597,25.390625,45.410156,25.390625,15.625000
5.659503,66.894531,47.851562,22.949219,38.085938
5.663409,34.179688,51.757812,28.808594,30.273438
5.692187,29.785156,48.339844,28.808594,17.089844
5.696093,31.738281,43.945312,26.855469,17.578125
5.700000,33.203125,38.574219,27.343750,27.343750
5.703906,70.800781,36.132812,29.296875,50.292969
5.707812,40.527344,41.503906,29.296875,44.921875
5.711718,35.156250,41.992188,25.390625,34.667969
5.713265,21.972656,37.109375,27.832031,20.507812
5.715625,38.085938,42.968750,30.273438,33.203125
5.717171,57.128906,38.574219,21.972656,26.855469
5.719531,30.273438,41.015625,32.714844,23.925781
5.721077,43.945312,43.457031,27.343750,44.921875
5.723437,64.941406,36.621094,30.761719,40.527344
5.724983,23.437500,46.875000,30.273438,36.132812
5.727343,36.621094,42.480469,32.714844,46.386719
5.728890,39.062500,47.851562,26.367188,29.296875
5.731250,32.226562,44.921875,30.761719,30.761719
5.732796,24.414062,50.292969,25.878906,26.367188
5.735156,45.898438,41.015625,30.273438,30.273438
5.736702,52.734375,52.246094,23.437500,39.550781
5.740608,37.109375,46.386719,25.878906,34.179688
5.744515,19.531250,49.804688,29.296875,21.972656
5.748421,36.132812,55.664062,27.832031,19.531250
5.752327,-2.441406,56.152344,27.343750,0.000000
5.756233,25.878906,53.222656,25.390625,7.812500
5.784416,37.597656,55.175781,29.785156,33.691406
5.788323,3.417969,53.710938,34.179688,24.902344
5.792229,15.625000,47.363281,34.179688,13.671875
5.796135,6.835938,48.828125,35.644531,11.718750
5.800041,28.320312,44.921875,34.667969,15.136719
5.803948,30.761719,45.898438,37.597656,24.902344
5.805195,30.273438,49.316406,44.921875,29.785156
5.807854,-1.464844,53.222656,41.992188,20.996094
5.809101,19.042969,56.152344,39.550781,6.835938
5.811760,19.531250,54.199219,39.062500,13.183594
5.813007,32.714844,55.175781,36.621094,14.160156
5.815666,16.113281,56.152344,36.132812,1.464844
5.816914,66.894531,50.781250,35.644531,43.457031
5.819573,30.273438,53.222656,33.691406,7.324219
5.820820,28.320312,50.292969,43.457031,43.945312
5.823479,42.968750,46.386719,37.109375,30.273438
5.824726,37.109375,41.015625,46.386719,42.480469
5.827385,16.113281,44.921875,47.363281,40.039062
5.828632,42.480469,42.480469,45.410156,41.503906
5.832539,38.085938,55.175781,39.550781,30.273438
5.836445,57.617188,59.570312,32.714844,32.226562
5.840351,28.808594,64.941406,39.062500,33.203125
5.844257,33.203125,62.011719,42.968750,31.738281
5.848164,29.785156,56.152344,43.457031,22.460938
5.876721,26.855469,50.781250,44.921875,20.019531
5.880628,64.941406,48.339844,42.968750,38.085938
5.884534,23.437500,52.246094,43.457031,31.738281
5.888440,19.042969,52.734375,43.457031,14.160156
5.892346,30.273438,51.269531,42.480469,14.648438
5.896253,10.253906,48.339844,42.480469,14.648438
5.900159,46.386719,45.898438,39.062500,27.343750
5.902020,21.484375,44.921875,42.968750,39.550781
5.904065,18.066406,49.804688,42.968750,27.343750
5.905926,6.347656,50.781250,45.898438,27.343750
5.907971,-1.953125,51.757812,44.433594,15.625000
5.909833,28.320312,51.269531,43.457031,20.507812
5.911878,20.019531,50.292969,39.550781,11.230469
5.913739,7.812500,51.757812,43.945312,5.859375
5.915784,-1.464844,46.875000,40.039062,-1.953125
5.917645,34.667969,49.316406,40.039062,19.042969
5.919690,26.855469,40.039062,38.085938,21.484375
5.921551,40.527344,52.734375,37.597656,39.550781
5.925458,16.113281,47.363281,41.503906,27.343750
5.929364,29.296875,34.667969,44.921875,19.042969
5.933270,7.324219,43.945312,44.921875,17.578125
5.937176,26.367188,51.757812,38.085938,14.160156
5.941083,38.085938,54.199219,35.644531,19.531250
5.944989,3.417969,58.593750,37.109375,20.019531
5.948895,25.878906,55.664062,36.621094,17.578125
5.952801,18.554688,54.199219,36.132812,6.347656
5.956708,29.785156,44.921875,36.621094,20.019531
5.960614,44.433594,40.039062,39.550781,41.015625
5.964520,18.554688,49.316406,44.433594,31.738281
5.968426,28.320312,53.710938,41.992188,23.437500
5.972333,9.765625,49.316406,38.574219,13.183594
5.976239,31.738281,41.503906,38.574219,14.648438
5.980145,52.734375,34.667969,41.015625,37.109375
5.984051,7.324219,39.550781,45.410156,37.109375
5.987958,22.460938,39.062500,41.992188,23.437500
5.991864,11.718750,38.574219,40.039062,16.113281
6.020717,16.113281,35.644531,38.085938,20.996094
6.024623,57.617188,38.085938,39.062500,36.132812
6.028529,24.414062,54.199219,41.015625,36.132812
6.032436,29.296875,48.828125,37.109375,35.644531
6.036342,19.042969,39.062500,35.156250,20.996094
6.040248,11.718750,35.156250,33.691406,12.207031
6.041567,19.042969,51.269531,36.132812,28.808594
6.044154,54.687500,36.621094,34.179688,33.203125
6.045473,16.113281,49.316406,36.132812,25.878906
6.048061,20.019531,41.015625,36.621094,39.062500
6.049380,27.832031,45.410156,38.085938,28.808594
6.051967,15.625000,42.480469,38.085938,41.503906
6.053286,9.765625,41.015625,41.015625,21.484375
6.055873,25.390625,47.851562,36.621094,31.738281
6.057192,55.175781,40.527344,40.039062,32.226562
6.059779,4.882812,46.875000,32.714844,5.371094
6.061098,32.226562,47.363281,40.039062,47.851562
6.063686,34.179688,45.898438,32.226562,15.136719
6.065005,5.859375,48.339844,36.132812,28.808594
6.068911,40.039062,44.921875,37.109375,21.972656
6.072817,21.972656,42.968750,40.039062,18.554688
6.076723,43.457031,38.574219,33.691406,29.785156
6.080630,41.015625,41.992188,35.644531,46.386719
6.084536,23.925781,41.992188,41.503906,37.597656
6.113140,44.921875,36.621094,39.550781,41.015625
6.117046,25.878906,37.597656,39.062500,28.320312
6.120953,45.410156,35.156250,33.691406,25.390625
6.124859,44.433594,39.550781,33.691406,37.597656
6.128765,20.996094,42.968750,41.015625,32.714844
6.132671,42.968750,34.667969,45.410156,41.015625
6.135259,32.714844,38.085938,31.738281,21.972656
6.136578,30.273438,33.691406,44.921875,41.503906
6.139165,50.781250,42.480469,28.320312,33.203125
6.140484,41.992188,38.085938,38.574219,33.203125
6.143071,18.066406,41.503906,34.667969,28.320312
6.144390,39.062500,40.039062,35.644531,35.156250
6.146978,31.250000,31.738281,38.574219,30.273438
6.148296,13.671875,44.433594,33.203125,22.460938
6.150884,17.578125,32.714844,42.480469,31.738281
6.152203,42.480469,41.015625,30.761719,18.554688
6.154790,25.878906,36.132812,41.503906,34.179688
6.156109,29.296875,39.062500,34.179688,16.601562
6.158696,50.292969,37.597656,35.156250,36.621094
6.162603,5.371094,41.503906,36.621094,28.320312
6.166509,14.648438,42.968750,33.691406,18.554688
6.170415,19.531250,43.457031,32.226562,20.019531
6.174321,16.113281,37.109375,34.179688,23.925781
6.178228,61.523438,26.855469,34.179688,41.015625
6.207574,36.132812,32.226562,39.062500,46.386719
6.211480,17.089844,33.691406,36.621094,32.226562
6.215386,23.925781,27.343750,34.667969,21.484375
6.219293,24.902344,20.507812,36.621094,20.996094
6.223199,63.964844,19.531250,33.203125,39.550781
6.227105,33.203125,30.273438,34.667969,46.386719
6.229038,41.992188,33.203125,34.667969,37.597656
6.231011,20.019531,32.226562,37.109375,37.597656
6.232944,21.972656,29.785156,35.156250,26.855469
6.234918,28.320312,29.296875,40.039062,33.691406
6.236851,61.035156,23.437500,32.226562,43.457031
6.238824,19.042969,29.296875,38.574219,29.785156
6.240757,58.593750,26.855469,35.644531,62.500000
6.242730,62.011719,26.855469,34.179688,38.574219
6.244663,24.902344,27.832031,39.062500,43.945312
6.246636,43.945312,32.714844,35.644531,42.480469
6.248569,41.015625,27.343750,37.597656,40.039062
6.250543,27.832031,36.132812,35.156250,33.203125
6.252476,24.902344,31.738281,37.597656,32.714844
6.256382,52.734375,31.738281,31.250000,40.039062
6.260288,44.433594,37.597656,29.296875,48.828125
6.264194,20.507812,40.039062,31.250000,30.273438
6.268101,42.480469,37.597656,28.320312,20.019531
6.272007,14.648438,34.179688,29.296875,10.253906
6.300780,44.433594,28.320312,29.785156,21.484375
6.304686,58.593750,28.320312,31.738281,47.363281
6.308592,19.042969,34.179688,34.179688,42.480469
6.312499,37.597656,36.621094,33.691406,33.691406
6.316405,15.625000,35.644531,33.203125,26.367188
6.320311,19.531250,30.273438,28.320312,35.156250
6.324217,54.687500,28.808594,30.273438,53.222656
6.326345,29.296875,37.109375,32.226562,34.179688
6.328124,27.832031,32.226562,36.621094,41.992188
6.330252,36.132812,41.503906,35.644531,39.062500
6.332030,31.738281,32.714844,33.203125,29.296875
6.334158,28.320312,37.109375,36.621094,28.320312
6.335936,19.042969,33.691406,30.273438,19.531250
6.338064,28.320312,30.273438,36.621094,33.691406
6.339842,30.761719,33.203125,29.296875,33.203125
6.341970,70.800781,28.320312,33.691406,56.152344
6.343749,64.453125,31.250000,27.343750,39.062500
6.345877,42.480469,36.621094,36.621094,51.757812
6.349783,40.527344,40.527344,37.597656,42.480469
6.353689,36.132812,38.574219,35.156250,39.550781
6.357595,29.785156,33.691406,33.691406,31.738281
6.361502,72.753906,26.367188,30.273438,40.039062
6.365408,44.433594,31.250000,30.761719,44.433594
6.369314,37.597656,35.156250,34.179688,40.039062
6.373220,51.757812,37.109375,37.109375,39.550781
6.377127,33.691406,33.691406,34.179688,34.667969
6.381033,59.570312,25.878906,28.808594,42.480469
6.384939,34.179688,34.179688,32.226562,45.410156
6.388845,24.414062,40.527344,36.132812,35.644531
6.392752,43.457031,39.550781,36.132812,34.667969
6.396658,25.390625,35.644531,33.691406,29.785156
6.400564,58.105469,30.273438,32.714844,42.968750
6.404470,51.269531,31.738281,37.109375,64.453125
6.408377,30.761719,33.691406,39.062500,52.734375
6.412283,40.527344,32.226562,39.550781,43.457031
6.416189,16.601562,29.785156,40.039062,38.574219
6.445502,51.269531,25.878906,37.597656,45.898438
6.449408,58.593750,31.250000,40.039062,60.058594
6.453315,28.808594,38.085938,44.433594,51.757812
6.457221,45.898438,37.597656,40.527344,42.968750
6.461127,28.808594,37.597656,36.621094,34.179688
6.465033,48.339844,35.156250,34.667969,33.203125
6.466904,30.761719,39.550781,38.574219,41.992188
6.468940,57.617188,34.667969,39.062500,48.339844
6.470811,47.363281,40.039062,33.691406,35.156250
6.472846,24.902344,38.574219,44.921875,50.781250
6.474717,22.460938,38.574219,36.132812,25.878906
6.476752,41.992188,41.015625,43.457031,35.644531
6.478623,36.621094,36.132812,34.179688,30.761719
6.480658,27.832031,41.015625,42.480469,17.578125
6.482529,62.988281,32.714844,31.738281,55.664062
6.484565,41.992188,36.132812,40.039062,27.832031
6.486436,25.390625,36.132812,37.597656,48.339844
6.488471,54.687500,34.179688,39.550781,50.781250
6.490342,40.039062,32.714844,39.062500,44.921875
6.494248,33.691406,29.785156,39.062500,44.921875
6.498154,38.574219,25.878906,34.179688,39.062500
6.502061,71.289062,20.019531,32.714844,58.105469
6.505967,32.714844,28.320312,37.597656,59.570312
6.509873,34.667969,34.667969,37.597656,43.457031
6.539182,29.785156,34.179688,34.179688,32.226562
6.543088,20.996094,24.414062,30.761719,25.390625
6.546994,55.175781,24.902344,33.691406,40.527344
6.550900,24.414062,30.273438,39.550781,37.109375
6.554807,22.949219,23.437500,38.085938,29.296875
6.558713,22.460938,25.390625,34.179688,17.578125
6.560585,37.109375,16.113281,27.832031,20.996094
6.562619,9.765625,25.878906,32.714844,3.417969
6.564492,17.578125,23.437500,30.761719,32.226562
6.566525,44.921875,21.972656,29.785156,21.972656
6.568398,1.953125,35.644531,29.296875,21.972656
6.570432,13.183594,24.414062,32.226562,36.621094
6.572304,25.390625,30.761719,28.808594,13.183594
6.574338,9.765625,20.996094,36.132812,30.761719
6.576210,10.742188,20.507812,31.250000,12.695312
6.578244,25.878906,21.972656,34.667969,24.414062
6.580117,45.410156,22.460938,28.320312,34.179688
6.582150,6.835938,22.949219,31.738281,15.625000
6.584023,44.433594,28.320312,32.714844,52.246094
6.587929,14.648438,32.226562,33.691406,32.714844
6.591835,33.691406,34.667969,29.296875,15.136719
6.595742,21.484375,34.667969,31.738281,19.531250
6.599648,50.781250,30.273438,26.855469,32.714844
6.603554,61.523438,29.785156,23.925781,36.621094
6.632516,27.832031,29.296875,28.808594,37.109375
6.636422,39.062500,27.832031,33.203125,40.039062
6.640328,30.273438,28.320312,32.714844,31.250000
6.644234,51.269531,21.972656,26.855469,30.761719
6.648141,59.082031,19.531250,28.808594,43.945312
6.652047,19.531250,24.414062,37.109375,41.503906
6.654183,26.855469,30.761719,33.691406,25.390625
6.655953,41.015625,22.460938,39.062500,37.597656
6.658090,29.296875,29.785156,33.203125,23.925781
6.659859,25.878906,24.902344,38.085938,33.203125
6.661996,62.500000,28.808594,33.203125,43.457031
6.663766,31.250000,26.367188,33.203125,31.250000
6.665902,22.460938,30.761719,36.132812,42.480469
6.667672,54.687500,27.343750,30.273438,35.156250
6.669808,28.320312,30.273438,39.062500,36.621094
6.671578,28.320312,30.761719,34.179688,39.062500
6.673715,28.808594,34.667969,40.039062,27.832031
6.675484,45.410156,28.808594,35.156250,40.039062
6.677621,20.507812,32.226562,35.644531,22.460938
6.681527,58.105469,29.296875,33.203125,42.968750
6.685433,32.714844,34.179688,39.062500,45.898438
6.689340,30.761719,31.738281,41.503906,33.203125
6.693246,32.226562,30.273438,39.550781,25.878906
6.697152,20.996094,31.250000,34.667969,17.089844
6.726136,53.222656,30.761719,31.738281,34.667969
6.730042,22.460938,35.156250,35.156250,41.015625
6.733949,25.390625,33.691406,36.621094,39.062500
6.737855,40.039062,34.667969,32.714844,35.644531
6.741761,24.902344,35.644531,30.761719,27.343750
6.745667,63.964844,33.203125,31.738281,44.921875
6.748084,16.113281,39.550781,35.644531,39.062500
6.749574,51.269531,33.691406,33.691406,53.222656
6.751990,31.738281,38.085938,31.738281,24.414062
6.753480,39.550781,31.738281,37.597656,42.480469
6.755896,14.160156,38.085938,28.808594,13.671875
6.757386,41.015625,30.273438,38.574219,34.667969
6.759803,45.898438,35.644531,23.437500,24.414062
6.761292,20.507812,23.437500,35.156250,32.714844
6.763709,38.085938,31.250000,27.832031,39.550781
6.765199,58.593750,15.625000,30.761719,42.968750
6.767615,9.765625,32.226562,31.738281,32.714844
6.769105,35.644531,27.832031,33.203125,45.410156
6.771521,32.714844,33.203125,30.273438,29.296875
6.775428,21.972656,39.550781,29.296875,26.367188
6.779334,35.644531,41.992188,23.437500,20.996094
6.783240,42.968750,34.667969,25.878906,29.296875
6.787146,24.414062,42.480469,26.855469,30.273438
6.791053,41.015625,41.015625,26.367188,33.203125
6.820273,21.972656,36.621094,31.250000,28.808594
6.824179,33.203125,32.714844,33.691406,27.343750
6.828085,57.128906,32.714844,36.132812,43.457031
6.831992,25.878906,41.992188,38.574219,36.621094
6.835898,30.761719,43.945312,37.109375,25.878906
6.839804,24.902344,42.480469,38.574219,27.832031
6.841110,76.171875,24.414062,37.597656,61.523438
6.843710,33.203125,34.667969,37.109375,36.621094
6.845017,33.691406,32.226562,40.039062,46.386719
6.847617,64.941406,34.667969,40.039062,56.640625
6.848923,30.761719,33.691406,37.109375,29.785156
6.851523,37.597656,41.015625,43.945312,57.617188
6.852829,33.203125,32.714844,36.621094,35.156250
6.855429,41.992188,36.621094,38.085938,36.621094
6.856735,33.203125,32.226562,32.226562,36.132812
6.859335,37.109375,35.156250,38.085938,31.738281
6.860642,72.753906,27.832031,30.761719,48.828125
6.863242,40.039062,29.296875,39.062500,48.828125
6.864548,38.574219,26.855469,43.457031,57.617188
6.868454,40.527344,28.320312,44.433594,45.898438
6.872360,47.851562,31.250000,36.621094,31.250000
6.876267,20.019531,31.738281,35.156250,21.972656
6.880173,48.339844,29.785156,32.714844,37.109375
6.884079,41.503906,35.156250,32.714844,40.527344
6.914746,41.503906,36.621094,32.714844,39.062500
6.918652,42.968750,31.738281,37.109375,36.132812
6.922559,20.507812,27.343750,39.062500,29.296875
6.926465,55.175781,28.320312,34.179688,41.992188
6.930371,38.085938,32.714844,39.550781,41.015625
6.934277,19.531250,35.156250,41.503906,33.203125
6.938184,37.109375,31.250000,40.527344,45.898438
6.938451,25.878906,39.550781,41.015625,28.808594
6.942090,19.042969,21.484375,41.992188,31.738281
6.942357,53.710938,30.761719,38.574219,42.968750
6.945996,55.664062,14.160156,37.597656,39.550781
6.946264,69.824219,24.414062,41.503906,68.359375
6.949902,57.128906,19.042969,41.015625,58.105469
6.950170,41.992188,28.320312,42.968750,57.617188
6.953809,28.320312,30.273438,43.457031,39.550781
6.954076,51.269531,30.273438,41.992188,42.968750
6.957715,40.039062,36.621094,41.015625,30.273438
6.957982,26.855469,31.250000,41.992188,36.621094
6.961889,44.921875,26.855469,39.062500,34.667969
6.965795,67.382812,20.996094,40.039062,52.246094
6.969701,35.644531,27.343750,42.968750,62.011719
6.973607,55.175781,31.250000,41.503906,59.082031
6.977514,35.156250,30.761719,42.968750,35.156250
6.981420,38.574219,29.785156,35.644531,24.414062
7.011571,57.617188,29.785156,28.808594,44.433594
7.015477,26.367188,34.667969,36.132812,46.386719
7.019383,42.968750,33.203125,34.179688,30.273438
7.023290,30.761719,28.808594,35.156250,22.949219
7.027196,25.878906,28.320312,34.667969,24.414062
7.031102,43.945312,27.343750,33.691406,36.621094
7.034230,25.390625,41.015625,37.597656,34.179688
7.035008,12.207031,28.808594,37.109375,37.109375
7.038137,41.015625,33.691406,41.992188,38.574219
7.038915,22.460938,33.691406,36.132812,24.902344
7.042043,38.574219,27.832031,43.457031,41.503906
7.042821,20.019531,32.714844,39.062500,26.367188
7.045949,56.640625,28.320312,41.992188,51.757812
7.046727,16.113281,33.691406,38.085938,38.085938
7.049855,25.390625,38.574219,45.410156,43.945312
7.050633,55.175781,37.597656,36.132812,46.386719
7.053762,21.484375,33.691406,48.339844,32.714844
7.054540,28.320312,42.480469,37.597656,41.503906
7.057668,39.062500,31.738281,47.851562,35.644531
7.061574,28.320312,35.644531,44.433594,29.785156
7.065480,63.476562,31.250000,41.992188,50.292969
7.069387,42.968750,37.597656,45.410156,63.964844
7.073293,29.785156,41.503906,45.898438,42.480469
7.077199,53.222656,34.667969,42.480469,32.226562
7.106602,32.714844,33.691406,43.945312,39.062500
7.110508,63.476562,31.738281,42.968750,49.316406
7.114415,58.593750,30.761719,42.968750,62.011719
7.118321,39.550781,34.179688,45.898438,46.386719
7.122227,54.687500,31.738281,46.386719,39.062500
7.126133,25.878906,24.902344,45.898438,40.527344
7.128742,53.710938,31.250000,34.667969,49.804688
7.130040,48.828125,15.136719,41.503906,45.410156
7.132648,16.113281,35.644531,41.992188,43.457031
7.133946,55.664062,15.625000,40.039062,56.152344
7.136554,29.785156,35.156250,42.480469,38.085938
7.137852,23.925781,24.414062,40.039062,40.527344
7.140460,9.765625,30.761719,41.015625,16.113281
7.141758,30.761719,30.273438,37.597656,38.574219
7.144367,19.042969,26.367188,35.644531,19.042969
7.145665,10.253906,34.179688,37.597656,24.902344
7.148273,42.968750,29.785156,37.109375,43.457031
7.149571,34.179688,32.226562,32.226562,29.785156
7.152179,7.812500,31.738281,39.062500,36.621094
7.156085,23.437500,31.250000,37.109375,27.343750
7.159992,3.417969,32.714844,39.062500,17.089844
7.163898,3.906250,30.761719,37.109375,14.160156
7.167804,36.621094,30.273438,39.062500,37.109375
7.171710,-0.488281,34.179688,41.015625,32.226562
7.201831,10.742188,35.644531,38.574219,21.484375
7.205737,14.160156,36.132812,38.574219,20.996094
7.209643,10.742188,31.250000,37.109375,20.507812
7.213550,48.828125,29.296875,36.132812,38.574219
7.217456,12.207031,34.179688,39.062500,33.203125
7.221362,3.906250,37.109375,39.062500,27.832031
7.223267,20.507812,30.273438,32.714844,11.230469
7.225268,20.019531,41.503906,35.156250,23.437500
7.227173,67.382812,25.878906,29.785156,30.761719
7.229175,17.578125,41.992188,33.691406,9.277344
7.231079,44.433594,33.691406,34.667969,54.199219
7.233081,58.593750,32.714844,37.109375,41.503906
7.234985,23.925781,35.644531,39.062500,44.433594
7.236987,37.597656,30.273438,41.992188,51.269531
7.238892,34.179688,39.550781,37.597656,20.507812
7.240893,25.390625,36.621094,41.503906,34.179688
7.242798,11.230469,41.015625,34.667969,17.578125
7.244800,28.808594,38.574219,36.621094,18.554688
7.246704,39.062500,30.273438,31.738281,30.273438
7.250109,36.132812,34.667969,38.085938,38.085938
7.250610,38.574219,31.250000,36.621094,52.734375
7.254016,4.882812,38.574219,37.109375,27.832031
7.254517,25.878906,39.550781,37.109375,43.945312
7.257922,26.367188,35.156250,38.574219,23.437500
7.258423,29.785156,40.039062,35.156250,21.484375
7.261828,13.183594,35.156250,39.062500,13.671875
7.262329,14.160156,38.574219,39.550781,19.531250
7.265734,24.902344,33.691406,37.109375,26.855469
7.266235,43.945312,32.226562,41.503906,32.226562
7.269641,27.832031,34.179688,39.062500,35.156250
7.273547,3.906250,25.878906,44.921875,27.832031
7.277453,19.531250,22.460938,44.921875,25.390625
7.281359,0.000000,37.109375,41.015625,4.394531
7.285266,6.835938,44.921875,34.667969,2.441406
7.289172,31.250000,40.527344,30.273438,27.343750
7.293078,4.882812,41.992188,34.179688,26.367188
7.296984,13.183594,41.992188,38.085938,20.019531
7.300891,-7.812500,30.761719,43.457031,14.160156
7.304797,-1.464844,24.414062,40.039062,18.066406
7.308703,36.621094,26.855469,34.667969,39.550781
7.312609,1.464844,33.203125,40.039062,25.878906
7.316516,11.230469,33.203125,39.062500,23.925781
7.320422,14.648438,35.156250,35.156250,17.089844
7.324328,22.460938,32.714844,34.667969,12.207031
7.328234,54.687500,25.878906,32.714844,41.503906
7.332141,20.507812,30.761719,40.527344,46.386719
7.336047,21.484375,36.132812,41.992188,36.132812
7.339953,29.296875,36.621094,38.085938,25.878906
7.370768,21.972656,34.667969,36.132812,15.625000
7.374674,51.269531,26.855469,35.644531,39.550781
7.378580,30.273438,30.273438,43.457031,46.875000
7.382487,28.808594,36.132812,42.480469,32.226562
7.386393,23.925781,34.179688,38.085938,21.972656
7.390299,2.929688,32.714844,37.597656,15.625000
7.394205,43.457031,30.273438,32.226562,29.296875
7.398112,25.878906,33.203125,35.156250,29.296875
7.402018,5.371094,29.296875,40.039062,20.507812
7.405924,7.812500,24.414062,42.968750,18.554688
7.409830,-4.882812,22.460938,42.480469,10.742188
7.413737,35.156250,21.484375,36.132812,13.183594
7.444284,23.437500,29.785156,34.667969,21.972656
7.448190,4.394531,35.644531,34.667969,15.136719
7.452096,15.136719,34.179688,33.691406,4.394531
7.456003,1.464844,31.250000,32.226562,7.324219
7.459909,41.992188,32.226562,31.250000,24.414062
7.463815,43.457031,38.574219,30.761719,22.460938
7.465420,32.714844,36.132812,31.250000,20.019531
7.467721,10.253906,41.503906,31.250000,13.671875
7.469326,12.207031,36.132812,32.714844,19.531250
7.471628,22.949219,38.574219,32.226562,15.136719
7.473232,29.296875,26.367188,34.667969,26.367188
7.475534,2.929688,28.808594,36.132812,16.601562
7.477139,45.898438,21.972656,37.597656,46.386719
7.479440,27.832031,22.949219,34.179688,27.343750
7.481045,9.277344,25.878906,39.062500,41.992188
7.483346,42.968750,31.250000,33.691406,34.667969
7.484951,22.460938,27.343750,35.156250,33.691406
7.487253,19.042969,34.179688,35.156250,24.414062
7.488857,11.230469,35.156250,32.226562,24.414062
7.491321,26.855469,33.691406,41.015625,30.761719
7.492764,32.714844,41.015625,27.832031,17.089844
7.495227,60.546875,29.296875,37.109375,45.410156
7.496670,56.640625,38.574219,28.808594,46.875000
7.499134,24.902344,37.109375,38.085938,37.597656
7.500576,9.765625,36.621094,36.621094,47.851562
7.503040,26.367188,38.574219,39.550781,26.367188
7.504482,26.367188,35.644531,35.156250,31.250000
7.506946,23.437500,40.527344,37.597656,17.089844
7.508389,22.460938,36.621094,36.132812,29.785156
7.510852,24.414062,40.527344,33.691406,14.160156
7.514759,52.246094,29.785156,33.203125,32.226562
7.518665,22.460938,29.296875,41.503906,38.574219
7.522571,21.484375,32.714844,44.921875,38.574219
7.526477,16.113281,35.156250,40.039062,20.019531
7.530384,8.300781,36.621094,33.691406,4.394531
7.534290,48.828125,33.691406,32.226562,26.367188
7.538196,30.761719,37.109375,36.132812,36.132812
7.542102,21.972656,35.644531,34.667969,25.878906
7.546009,28.808594,34.667969,32.714844,15.625000
7.549915,23.437500,38.574219,32.714844,14.160156
7.553821,63.476562,41.992188,28.808594,25.390625
7.557727,35.156250,49.316406,28.320312,32.714844
7.561634,16.601562,41.992188,29.785156,30.273438
7.565540,30.761719,33.691406,32.226562,21.484375
7.569446,9.765625,37.109375,35.644531,9.277344
7.573352,41.992188,33.691406,29.296875,17.089844
7.577259,30.273438,32.226562,29.785156,34.667969
7.581165,12.695312,33.203125,37.597656,39.062500
7.610078,31.738281,31.738281,37.597656,26.367188
7.613984,-1.953125,36.132812,31.738281,2.441406
7.617891,18.554688,32.226562,25.390625,10.253906
7.621797,27.343750,30.761719,31.250000,29.785156
7.625703,10.253906,34.179688,37.109375,25.878906
7.629609,25.878906,29.296875,39.550781,30.273438
7.631512,30.273438,20.996094,35.156250,24.902344
7.633516,6.347656,31.738281,38.574219,21.972656
7.635418,52.734375,21.484375,30.761719,37.597656
7.637422,24.414062,31.250000,33.203125,17.089844
7.639324,4.394531,26.855469,30.273438,34.179688
7.641328,30.761719,30.273438,33.691406,20.507812
7.643230,26.855469,22.949219,31.250000,27.832031
7.645234,11.718750,34.179688,35.156250,15.625000
7.647137,20.996094,27.343750,37.597656,23.437500
7.649141,35.644531,31.250000,33.691406,20.996094
7.651043,19.531250,34.667969,40.039062,22.460938
7.653047,7.812500,27.343750,35.156250,22.949219
7.654949,47.363281,30.761719,40.527344,32.714844
7.658855,18.554688,35.644531,42.968750,36.621094
7.662762,36.621094,39.550781,37.597656,30.273438
7.666668,29.296875,40.527344,36.132812,22.460938
7.670574,20.996094,34.667969,36.132812,22.949219
7.674480,60.058594,27.343750,39.550781,44.433594
7.704961,29.785156,31.250000,42.968750,53.710938
7.708867,33.691406,37.109375,38.574219,36.132812
7.712773,24.902344,39.062500,36.132812,14.648438
7.716680,2.929688,35.156250,32.226562,14.648438
7.720586,50.781250,32.226562,28.808594,25.390625
7.724492,26.855469,32.226562,35.644531,29.785156
7.728398,6.347656,28.808594,41.503906,21.972656
7.732305,16.601562,27.343750,39.062500,11.718750
7.736211,5.859375,30.273438,34.667969,14.160156
7.740117,30.273438,30.273438,30.761719,31.738281
7.744023,18.066406,31.738281,37.109375,35.644531
7.747930,15.136719,33.691406,43.945312,36.621094
7.753610,23.925781,28.808594,44.433594,31.738281
7.757516,4.394531,27.343750,42.480469,21.484375
7.761422,37.597656,25.878906,39.062500,36.621094
7.765329,28.808594,27.343750,41.015625,43.945312
7.769235,10.742188,27.832031,42.480469,37.597656
7.773141,27.832031,28.808594,42.480469,29.296875
7.777047,14.160156,34.179688,41.992188,27.832031
7.780954,41.015625,29.785156,37.109375,43.945312
7.784860,42.968750,29.296875,37.109375,49.804688
7.788766,26.367188,34.179688,37.109375,36.621094
7.792672,46.875000,35.644531,35.644531,33.691406
7.796579,28.320312,36.132812,37.597656,29.785156
7.800485,45.410156,28.808594,36.621094,36.621094
7.804391,61.035156,26.855469,41.503906,62.500000
7.808297,43.945312,35.156250,41.992188,57.617188
7.812204,48.828125,36.621094,33.691406,33.691406
7.816110,26.367188,36.621094,32.714844,18.554688
7.820016,55.175781,36.132812,31.738281,31.738281
7.821944,75.683594,33.691406,32.714844,54.687500
7.825273,26.855469,33.203125,40.527344,45.410156
7.825851,33.203125,29.785156,37.109375,42.480469
7.829179,36.621094,26.367188,44.921875,40.527344
7.829757,46.875000,26.367188,36.621094,41.015625
7.833086,24.414062,27.343750,44.433594,32.226562
7.833663,40.039062,31.738281,38.085938,39.062500
7.836992,29.785156,36.132812,40.527344,36.621094
7.837569,43.457031,32.226562,38.085938,28.808594
7.840898,64.453125,37.597656,35.156250,49.316406
7.841476,61.523438,33.691406,34.667969,43.457031
7.844804,22.949219,39.062500,36.132812,27.832031
7.848711,31.738281,39.550781,38.085938,24.414062
7.852617,39.062500,36.621094,41.015625,35.644531
7.856523,38.085938,28.320312,44.433594,34.179688
7.860429,75.195312,19.531250,44.921875,50.292969
7.864336,28.808594,25.878906,47.363281,54.199219
7.868242,26.855469,31.738281,47.851562,44.433594
7.872148,48.339844,41.015625,44.433594,49.316406
7.876054,29.296875,41.503906,41.503906,47.851562
7.879961,58.593750,31.738281,42.968750,50.292969
7.883867,39.550781,35.156250,45.898438,60.546875
7.887773,32.714844,37.109375,44.433594,56.152344
7.891679,40.527344,37.109375,46.875000,41.503906
7.895586,26.367188,36.621094,49.316406,35.644531
7.899492,74.218750,35.644531,44.921875,59.082031
7.903398,60.546875,41.015625,45.410156,68.847656
7.907304,43.457031,41.503906,46.386719,53.222656
7.911211,63.964844,38.574219,43.457031,49.804688
7.915117,34.179688,35.156250,43.945312,49.804688
7.945194,59.082031,27.343750,43.945312,50.292969
7.949100,55.664062,30.761719,48.339844,57.128906
7.953007,31.738281,36.621094,46.875000,49.804688
7.956913,55.175781,37.109375,41.992188,35.156250
7.960819,35.156250,38.085938,46.386719,39.550781
7.964725,58.105469,32.226562,46.386719,58.105469
7.966930,31.250000,38.085938,51.757812,56.640625
7.968632,57.617188,30.273438,50.292969,64.941406
7.970837,40.527344,40.039062,46.386719,43.945312
7.972538,30.761719,36.621094,51.757812,54.687500
7.974743,19.042969,40.039062,43.945312,25.390625
7.976444,49.316406,41.992188,44.433594,41.992188
7.978649,24.414062,33.203125,40.527344,24.414062
7.980350,19.531250,41.015625,43.457031,39.550781
7.982555,49.316406,30.761719,40.527344,42.968750
7.984257,39.550781,34.667969,44.921875,43.457031
7.986462,22.460938,33.691406,46.386719,46.875000
7.988163,63.476562,33.203125,48.828125,52.734375
7.990368,38.085938,32.226562,43.945312,44.921875
7.994274,23.437500,35.156250,41.503906,29.296875
7.998180,29.785156,32.714844,37.109375,25.878906
8.002087,73.242188,29.785156,32.226562,49.316406
8.005993,45.898438,40.527344,37.597656,51.757812
8.009899,36.132812,44.433594,41.503906,41.992188
8.040208,29.785156,39.550781,41.503906,30.761719
8.044114,42.480469,37.109375,41.992188,39.062500
8.048021,77.148438,39.062500,39.062500,61.523438
8.051927,34.179688,41.992188,37.109375,43.945312
8.055833,27.832031,41.992188,34.179688,28.808594
8.059739,36.132812,40.039062,36.132812,29.296875
8.062993,53.222656,22.949219,33.691406,36.621094
8.063646,23.437500,35.156250,42.480469,31.250000
8.066900,34.179688,32.714844,39.550781,46.875000
8.067552,55.664062,28.320312,43.457031,46.386719
8.070806,15.625000,38.574219,44.433594,41.503906
8.071458,31.250000,30.273438,44.921875,49.316406
8.074712,37.597656,28.320312,44.433594,35.644531
8.075364,19.042969,34.179688,40.527344,36.132812
8.078618,21.484375,27.832031,42.480469,22.949219
8.079271,32.226562,40.527344,37.109375,28.320312
8.082525,51.269531,37.109375,34.667969,34.667969
8.083177,15.136719,33.691406,36.621094,21.972656
8.086431,41.503906,41.015625,34.667969,42.968750
8.090337,24.414062,40.039062,41.015625,40.527344
8.094243,37.109375,32.226562,42.968750,31.738281
8.098150,20.507812,33.691406,39.062500,18.554688
8.102056,49.316406,36.621094,34.667969,32.226562
8.105962,43.945312,37.109375,34.179688,43.457031
8.135378,20.507812,41.015625,35.644531,38.085938
8.139285,42.968750,39.550781,37.109375,34.667969
8.143191,25.878906,35.156250,39.550781,24.902344
8.147097,41.015625,27.832031,40.039062,39.062500
8.151003,53.222656,32.226562,39.550781,52.734375
8.154910,22.460938,41.503906,41.503906,34.667969
8.156717,27.343750,37.109375,35.644531,22.460938
8.158816,43.945312,38.085938,42.480469,34.179688
8.160624,33.203125,32.226562,35.644531,25.390625
8.162722,32.226562,34.667969,42.968750,31.250000
8.164530,67.871094,27.343750,36.132812,46.386719
8.166628,46.875000,29.785156,42.480469,35.156250
8.168436,32.714844,30.273438,42.480469,45.898438
8.170535,61.035156,28.808594,42.480469,47.851562
8.172342,37.109375,35.156250,41.503906,40.039062
8.174441,17.089844,34.179688,42.480469,39.062500
8.176249,23.437500,33.691406,40.527344,27.832031
8.178347,37.109375,37.109375,36.621094,32.714844
8.180155,16.113281,23.437500,40.039062,22.949219
8.184061,58.105469,22.460938,36.621094,48.339844
8.187967,28.808594,38.574219,39.062500,56.152344
8.191874,29.296875,48.828125,37.597656,40.527344
8.195780,30.273438,46.386719,34.179688,27.832031
8.199686,19.042969,41.015625,36.132812,23.925781
8.230078,48.339844,31.738281,39.550781,37.109375
8.233984,23.437500,26.367188,44.433594,48.828125
8.237890,31.738281,30.761719,43.457031,41.992188
8.241797,34.179688,39.062500,40.039062,21.484375
8.245703,6.347656,36.621094,37.597656,10.253906
8.249609,51.269531,30.761719,34.667969,30.273438
8.251816,30.761719,35.644531,41.992188,35.156250
8.253515,41.015625,36.132812,38.085938,42.480469
8.255722,35.156250,28.808594,40.527344,27.343750
8.257422,21.484375,37.109375,39.550781,37.597656
8.259628,25.390625,26.367188,42.480469,24.414062
8.261328,32.226562,34.179688,39.062500,24.414062
8.263535,59.570312,25.390625,38.085938,45.410156
8.265234,20.507812,31.250000,41.503906,16.113281
8.267441,45.898438,28.320312,37.597656,44.433594
8.269140,69.335938,25.390625,38.085938,34.667969
8.271347,13.183594,30.761719,40.527344,26.367188
8.273047,64.941406,32.714844,39.550781,43.945312
8.275253,41.503906,31.250000,37.597656,32.226562
8.279160,35.156250,30.761719,38.085938,25.390625
8.283066,56.640625,23.437500,41.015625,41.015625
8.286972,60.546875,27.343750,42.480469,65.429688
8.290878,26.367188,36.132812,42.480469,52.734375
8.294785,43.945312,31.738281,39.062500,36.621094
8.324927,27.832031,27.832031,38.085938,24.414062
8.328833,36.621094,24.902344,36.132812,28.320312
8.332740,49.804688,22.949219,35.644531,49.804688
8.336646,12.695312,28.320312,42.480469,48.828125
8.340552,32.714844,35.156250,39.550781,37.597656
8.344458,22.949219,39.062500,38.085938,24.414062
8.347009,42.968750,41.015625,35.644531,32.226562
8.348365,31.250000,37.109375,37.109375,20.019531
8.350915,12.695312,38.574219,37.109375,29.296875
8.352271,45.410156,30.761719,33.203125,36.132812
8.354822,21.972656,34.667969,38.085938,22.949219
8.356177,7.812500,31.250000,41.992188,34.667969
8.358728,25.878906,28.808594,41.015625,20.996094
8.360083,23.925781,31.738281,45.410156,30.273438
8.362634,16.113281,24.902344,41.015625,27.343750
8.363990,17.578125,30.273438,43.945312,27.343750
8.366540,55.175781,28.808594,36.621094,51.757812
8.367896,14.648438,39.062500,40.039062,18.066406
8.370447,35.644531,37.109375,39.062500,54.199219
8.374353,43.945312,41.992188,38.574219,44.433594
8.378259,49.316406,45.898438,33.203125,26.367188
8.382165,30.273438,43.457031,28.320312,20.996094
8.386072,73.730469,37.597656,28.808594,54.687500
8.389978,50.292969,39.550781,37.597656,64.941406
8.420297,35.156250,37.109375,41.503906,38.085938
8.424203,54.687500,34.179688,38.085938,42.968750
8.428109,42.480469,37.109375,35.156250,44.433594
8.432016,72.265625,36.621094,31.738281,45.410156
8.435922,50.292969,36.132812,33.203125,53.710938
8.439828,30.761719,36.621094,37.109375,43.945312
8.442996,34.667969,37.109375,37.109375,32.226562
8.443734,47.363281,36.621094,39.550781,35.156250
8.446902,57.128906,31.738281,37.597656,31.738281
8.447641,27.832031,36.621094,40.039062,26.855469
8.450808,49.804688,31.250000,40.527344,45.898438
8.451547,63.964844,30.273438,34.667969,41.503906
8.454715,17.578125,39.550781,43.945312,37.597656
8.455453,61.035156,32.226562,37.597656,54.199219
8.458621,32.226562,42.480469,39.062500,29.296875
8.459359,28.320312,39.550781,39.550781,37.597656
8.462527,20.996094,41.503906,39.550781,19.042969
8.463266,45.410156,38.574219,33.691406,35.644531
8.466433,37.597656,34.179688,38.085938,26.855469
8.470340,47.363281,31.250000,38.574219,46.875000
8.474246,18.066406,33.691406,41.015625,38.085938
8.478152,34.667969,34.667969,36.621094,26.367188
8.482058,19.042969,39.062500,36.132812,13.183594
8.485965,36.132812,35.644531,35.644531,20.996094
8.516215,58.593750,30.761719,36.132812,41.503906
8.520121,11.230469,30.273438,41.992188,32.714844
8.524028,28.808594,30.273438,41.015625,34.179688
8.527934,25.878906,32.226562,36.132812,28.808594
8.531840,20.019531,27.832031,34.667969,15.625000
8.535746,49.316406,29.296875,36.621094,32.714844
8.538487,23.925781,22.949219,34.179688,27.832031
8.539653,30.273438,31.250000,45.898438,46.386719
8.542393,42.968750,22.949219,35.156250,22.949219
8.543559,32.226562,22.460938,45.410156,36.621094
8.546300,30.761719,31.738281,33.203125,20.019531
8.547465,23.437500,21.484375,39.550781,23.437500
8.550206,65.429688,29.296875,37.109375,38.574219
8.551371,19.531250,20.996094,39.062500,26.855469
8.554112,41.992188,33.691406,41.992188,49.804688
8.555278,54.199219,21.972656,35.156250,36.621094
8.558018,35.156250,42.480469,36.621094,41.992188
8.559184,21.972656,27.832031,32.226562,34.179688
8.561925,38.574219,40.527344,34.667969,17.089844
8.565831,4.882812,33.691406,34.667969,2.929688
8.569737,42.968750,27.343750,32.226562,24.414062
8.573643,33.203125,30.273438,38.085938,36.132812
8.577550,15.625000,32.714844,37.597656,24.414062
8.581456,22.949219,30.761719,33.691406,20.019531
8.610944,4.394531,33.691406,33.691406,14.648438
8.614850,38.085938,27.343750,33.203125,22.949219
8.618757,36.132812,26.367188,36.621094,35.156250
8.622663,20.507812,33.203125,36.621094,27.343750
8.626569,34.179688,38.574219,37.109375,19.531250
